Freq (hertz)	Ra (norm)	Xa (norm)	Za (norm)	SPL (dB)	Ze (ohms)	Xd (mm) 	WPhase (deg)	UPhase (deg)	CPhase (deg)	Delay (msec)	Efficiency (%)	Ein (volts)	Pin (watts)	Iin (amps)	ZePhase (deg)

10.000000	0.001815	0.051104	0.051137	75.454697	5.375251	0.647468	165.208119	165.208119	165.208119	4.140223	0.003679	2.830000	1.446837	0.526487	13.818073
10.144045	0.001867	0.051839	0.051873	75.701694	5.380523	0.647365	164.993389	164.993389	164.993389	4.141529	0.003901	2.830000	1.444172	0.525971	14.017683
10.290166	0.001922	0.052584	0.052619	75.948644	5.385959	0.647260	164.775496	164.775496	164.775496	4.142869	0.004137	2.830000	1.441433	0.525440	14.220188
10.438391	0.001977	0.053340	0.053377	76.195548	5.391564	0.647151	164.554391	164.554391	164.554391	4.144243	0.004388	2.830000	1.438617	0.524894	14.425630
10.588751	0.002035	0.054107	0.054145	76.442402	5.397345	0.647038	164.330027	164.330027	164.330027	4.145653	0.004654	2.830000	1.435722	0.524332	14.634052
10.741277	0.002094	0.054884	0.054924	76.689207	5.403307	0.646922	164.102352	164.102352	164.102352	4.147098	0.004936	2.830000	1.432746	0.523753	14.845498
10.896000	0.002154	0.055673	0.055715	76.935959	5.409457	0.646803	163.871317	163.871317	163.871317	4.148580	0.005236	2.830000	1.429687	0.523158	15.060011
11.052951	0.002217	0.056473	0.056517	77.182657	5.415800	0.646679	163.636868	163.636868	163.636868	4.150099	0.005554	2.830000	1.426542	0.522545	15.277636
11.212164	0.002281	0.057285	0.057330	77.429300	5.422343	0.646552	163.398954	163.398954	163.398954	4.151656	0.005892	2.830000	1.423311	0.521915	15.498418
11.373670	0.002347	0.058108	0.058155	77.675885	5.429094	0.646420	163.157522	163.157522	163.157522	4.153252	0.006251	2.830000	1.419989	0.521266	15.722404
11.537502	0.002415	0.058943	0.058992	77.922410	5.436058	0.646285	162.912516	162.912516	162.912516	4.154887	0.006632	2.830000	1.416575	0.520598	15.949639
11.703695	0.002485	0.059790	0.059841	78.168874	5.443244	0.646145	162.663883	162.663883	162.663883	4.156563	0.007037	2.830000	1.413067	0.519911	16.180172
11.872281	0.002557	0.060648	0.060702	78.415274	5.450659	0.646000	162.411565	162.411565	162.411565	4.158280	0.007466	2.830000	1.409462	0.519203	16.414049
12.043295	0.002631	0.061520	0.061576	78.661608	5.458311	0.645851	162.155505	162.155505	162.155505	4.160038	0.007923	2.830000	1.405757	0.518475	16.651319
12.216773	0.002708	0.062403	0.062462	78.907874	5.466208	0.645697	161.895646	161.895646	161.895646	4.161839	0.008408	2.830000	1.401950	0.517726	16.892031
12.392750	0.002786	0.063299	0.063361	79.154069	5.474359	0.645538	161.631928	161.631928	161.631928	4.163684	0.008923	2.830000	1.398038	0.516955	17.136235
12.571262	0.002867	0.064208	0.064272	79.400191	5.482773	0.645374	161.364292	161.364292	161.364292	4.165572	0.009471	2.830000	1.394018	0.516162	17.383982
12.752345	0.002950	0.065130	0.065197	79.646238	5.491459	0.645205	161.092676	161.092676	161.092676	4.167505	0.010053	2.830000	1.389888	0.515346	17.635322
12.936037	0.003036	0.066066	0.066135	79.892206	5.500426	0.645030	160.817018	160.817018	160.817018	4.169483	0.010671	2.830000	1.385646	0.514506	17.890307
13.122374	0.003124	0.067014	0.067087	80.138093	5.509685	0.644849	160.537255	160.537255	160.537255	4.171508	0.011328	2.830000	1.381287	0.513641	18.148989
13.311396	0.003214	0.067976	0.068052	80.383896	5.519246	0.644663	160.253322	160.253322	160.253322	4.173579	0.012027	2.830000	1.376809	0.512751	18.411422
13.503140	0.003307	0.068952	0.069031	80.629612	5.529120	0.644470	159.965156	159.965156	159.965156	4.175698	0.012770	2.830000	1.372210	0.511836	18.677659
13.697647	0.003403	0.069942	0.070024	80.875238	5.539318	0.644271	159.672688	159.672688	159.672688	4.177864	0.013559	2.830000	1.367486	0.510893	18.947755
13.894955	0.003502	0.070945	0.071032	81.120770	5.549853	0.644065	159.375852	159.375852	159.375852	4.180080	0.014399	2.830000	1.362633	0.509923	19.221764
14.095105	0.003603	0.071963	0.072053	81.366206	5.560736	0.643853	159.074578	159.074578	159.074578	4.182344	0.015292	2.830000	1.357650	0.508925	19.499742
14.298139	0.003708	0.072996	0.073090	81.611542	5.571980	0.643634	158.768798	158.768798	158.768798	4.184659	0.016242	2.830000	1.352533	0.507898	19.781745
14.504097	0.003815	0.074043	0.074141	81.856774	5.583598	0.643407	158.458440	158.458440	158.458440	4.187023	0.017253	2.830000	1.347277	0.506842	20.067830
14.713021	0.003926	0.075105	0.075208	82.101899	5.595606	0.643173	158.143431	158.143431	158.143431	4.189439	0.018328	2.830000	1.341881	0.505754	20.358055
14.924955	0.004040	0.076182	0.076289	82.346912	5.608017	0.642931	157.823698	157.823698	157.823698	4.191906	0.019472	2.830000	1.336341	0.504635	20.652477
15.139942	0.004157	0.077275	0.077387	82.591809	5.620846	0.642681	157.499167	157.499167	157.499167	4.194424	0.020690	2.830000	1.330653	0.503483	20.951156
15.358026	0.004277	0.078383	0.078500	82.836586	5.634109	0.642422	157.169761	157.169761	157.169761	4.196994	0.021986	2.830000	1.324814	0.502298	21.254150
15.579251	0.004401	0.079507	0.079628	83.081240	5.647823	0.642155	156.835404	156.835404	156.835404	4.199617	0.023365	2.830000	1.318820	0.501078	21.561520
15.803663	0.004528	0.080646	0.080774	83.325764	5.662006	0.641879	156.496016	156.496016	156.496016	4.202292	0.024835	2.830000	1.312669	0.499823	21.873325
16.031307	0.004660	0.081802	0.081935	83.570155	5.676675	0.641593	156.151519	156.151519	156.151519	4.205019	0.026399	2.830000	1.306355	0.498531	22.189626
16.262231	0.004795	0.082975	0.083113	83.814407	5.691850	0.641298	155.801830	155.801830	155.801830	4.207800	0.028066	2.830000	1.299876	0.497202	22.510485
16.496481	0.004934	0.084164	0.084308	84.058515	5.707551	0.640992	155.446867	155.446867	155.446867	4.210632	0.029841	2.830000	1.293227	0.495834	22.835963
16.734105	0.005076	0.085370	0.085520	84.302474	5.723797	0.640676	155.086547	155.086547	155.086547	4.213518	0.031732	2.830000	1.286406	0.494427	23.166123
16.975152	0.005223	0.086592	0.086750	84.546278	5.740612	0.640350	154.720783	154.720783	154.720783	4.216456	0.033748	2.830000	1.279408	0.492979	23.501026
17.219671	0.005375	0.087833	0.087997	84.789922	5.758018	0.640012	154.349490	154.349490	154.349490	4.219446	0.035897	2.830000	1.272230	0.491489	23.840736
17.467712	0.005530	0.089090	0.089262	85.033398	5.776038	0.639662	153.972580	153.972580	153.972580	4.222488	0.038188	2.830000	1.264867	0.489955	24.185316
17.719326	0.005691	0.090366	0.090545	85.276702	5.794699	0.639301	153.589962	153.589962	153.589962	4.225580	0.040631	2.830000	1.257316	0.488377	24.534828
17.974565	0.005855	0.091660	0.091846	85.519825	5.814027	0.638927	153.201547	153.201547	153.201547	4.228724	0.043237	2.830000	1.249573	0.486754	24.889337
18.233480	0.006025	0.092971	0.093166	85.762762	5.834049	0.638540	152.807241	152.807241	152.807241	4.231917	0.046017	2.830000	1.241634	0.485083	25.248906
18.496125	0.006199	0.094302	0.094505	86.005505	5.854794	0.638139	152.406951	152.406951	152.406951	4.235159	0.048983	2.830000	1.233496	0.483365	25.613597
18.762553	0.006379	0.095651	0.095863	86.248046	5.876294	0.637725	152.000582	152.000582	152.000582	4.238449	0.052149	2.830000	1.225154	0.481596	25.983476
19.032818	0.006564	0.097019	0.097241	86.490379	5.898580	0.637295	151.588037	151.588037	151.588037	4.241785	0.055529	2.830000	1.216604	0.479777	26.358605
19.306977	0.006754	0.098407	0.098638	86.732493	5.921686	0.636851	151.169218	151.169218	151.169218	4.245166	0.059139	2.830000	1.207843	0.477904	26.739046
19.585085	0.006949	0.099814	0.100055	86.974382	5.945648	0.636391	150.744025	150.744025	150.744025	4.248591	0.062994	2.830000	1.198867	0.475978	27.124863
19.867199	0.007150	0.101241	0.101493	87.216037	5.970504	0.635915	150.312358	150.312358	150.312358	4.252057	0.067114	2.830000	1.189672	0.473997	27.516118
20.153377	0.007357	0.102687	0.102951	87.457447	5.996293	0.635422	149.874113	149.874113	149.874113	4.255562	0.071516	2.830000	1.180254	0.471958	27.912872
20.443677	0.007570	0.104155	0.104429	87.698604	6.023057	0.634912	149.429188	149.429188	149.429188	4.259105	0.076222	2.830000	1.170610	0.469861	28.315186
20.738158	0.007789	0.105643	0.105929	87.939498	6.050841	0.634383	148.977476	148.977476	148.977476	4.262683	0.081255	2.830000	1.160735	0.467704	28.723119
21.036882	0.008015	0.107151	0.107451	88.180118	6.079690	0.633836	148.518871	148.518871	148.518871	4.266292	0.086639	2.830000	1.150627	0.465484	29.136730
21.339908	0.008247	0.108681	0.108994	88.420453	6.109654	0.633269	148.053264	148.053264	148.053264	4.269929	0.092399	2.830000	1.140282	0.463201	29.556077
21.647300	0.008485	0.110233	0.110559	88.660492	6.140786	0.632681	147.580547	147.580547	147.580547	4.273592	0.098565	2.830000	1.129696	0.460853	29.981215
21.959119	0.008731	0.111806	0.112146	88.900223	6.173140	0.632073	147.100608	147.100608	147.100608	4.277277	0.105167	2.830000	1.118867	0.458438	30.412198
22.275430	0.008983	0.113401	0.113756	89.139634	6.206774	0.631442	146.613335	146.613335	146.613335	4.280979	0.112238	2.830000	1.107791	0.455953	30.849078
22.596297	0.009243	0.115018	0.115389	89.378712	6.241752	0.630789	146.118615	146.118615	146.118615	4.284694	0.119815	2.830000	1.096465	0.453398	31.291905
22.921786	0.009511	0.116658	0.117045	89.617444	6.278137	0.630112	145.616333	145.616333	145.616333	4.288417	0.127936	2.830000	1.084887	0.450771	31.740725
23.251963	0.009786	0.118321	0.118725	89.855815	6.316000	0.629411	145.106373	145.106373	145.106373	4.292143	0.136645	2.830000	1.073053	0.448068	32.195583
23.586897	0.010069	0.120007	0.120429	90.093812	6.355416	0.628684	144.588618	144.588618	144.588618	4.295866	0.145987	2.830000	1.060962	0.445290	32.656520
23.926655	0.010360	0.121717	0.122157	90.331420	6.396461	0.627930	144.062950	144.062950	144.062950	4.299581	0.156013	2.830000	1.048612	0.442432	33.123572
24.271307	0.010659	0.123450	0.123910	90.568622	6.439221	0.627149	143.529250	143.529250	143.529250	4.303280	0.166777	2.830000	1.036000	0.439494	33.596772
24.620924	0.010967	0.125208	0.125687	90.805402	6.483785	0.626340	142.987398	142.987398	142.987398	4.306956	0.178339	2.830000	1.023125	0.436473	34.076149
24.975577	0.011284	0.126990	0.127490	91.041743	6.530246	0.625501	142.437274	142.437274	142.437274	4.310603	0.190763	2.830000	1.009985	0.433368	34.561725
25.335338	0.011611	0.128797	0.129319	91.277628	6.578708	0.624631	141.878755	141.878755	141.878755	4.314211	0.204120	2.830000	0.996581	0.430176	35.053517
25.700282	0.011946	0.130628	0.131173	91.513038	6.629277	0.623729	141.311720	141.311720	141.311720	4.317772	0.218486	2.830000	0.982910	0.426894	35.551536
26.070482	0.012291	0.132485	0.133054	91.747954	6.682070	0.622795	140.736046	140.736046	140.736046	4.321278	0.233947	2.830000	0.968974	0.423521	36.055786
26.446016	0.012647	0.134368	0.134962	91.982355	6.737211	0.621825	140.151610	140.151610	140.151610	4.324717	0.250594	2.830000	0.954771	0.420055	36.566260
26.826958	0.013012	0.136277	0.136896	92.216222	6.794831	0.620821	139.558289	139.558289	139.558289	4.328079	0.268527	2.830000	0.940304	0.416493	37.082947
27.213388	0.013388	0.138212	0.138859	92.449532	6.855074	0.619779	138.955960	138.955960	138.955960	4.331353	0.287857	2.830000	0.925573	0.412833	37.605822
27.605384	0.013774	0.140173	0.140848	92.682263	6.918091	0.618699	138.344500	138.344500	138.344500	4.334527	0.308704	2.830000	0.910580	0.409072	38.134852
28.003026	0.014172	0.142162	0.142867	92.914391	6.984048	0.617579	137.723785	137.723785	137.723785	4.337588	0.331201	2.830000	0.895328	0.405209	38.669989
28.406397	0.014581	0.144178	0.144913	93.145893	7.053120	0.616417	137.093694	137.093694	137.093694	4.340523	0.355493	2.830000	0.879819	0.401241	39.211175
28.815578	0.015002	0.146222	0.146989	93.376743	7.125497	0.615214	136.454105	136.454105	136.454105	4.343318	0.381739	2.830000	0.864057	0.397165	39.758334
29.230652	0.015435	0.148293	0.149094	93.606915	7.201386	0.613965	135.804896	135.804896	135.804896	4.345956	0.410116	2.830000	0.848046	0.392980	40.311376
29.651706	0.015881	0.150393	0.151229	93.836382	7.281007	0.612671	135.145949	135.145949	135.145949	4.348423	0.440817	2.830000	0.831792	0.388682	40.870191
30.078825	0.016339	0.152522	0.153394	94.065116	7.364601	0.611329	134.477144	134.477144	134.477144	4.350702	0.474055	2.830000	0.815300	0.384271	41.434648
30.512097	0.016811	0.154679	0.155590	94.293086	7.452427	0.609938	133.798367	133.798367	133.798367	4.352774	0.510065	2.830000	0.798578	0.379742	42.004597
30.951609	0.017296	0.156866	0.157817	94.520264	7.544768	0.608496	133.109501	133.109501	133.109501	4.354622	0.549109	2.830000	0.781632	0.375094	42.579860
31.397452	0.017795	0.159083	0.160075	94.746618	7.641928	0.607002	132.410436	132.410436	132.410436	4.356225	0.591473	2.830000	0.764472	0.370325	43.160231
31.849718	0.018308	0.161330	0.162365	94.972115	7.744243	0.605452	131.701062	131.701062	131.701062	4.357563	0.637475	2.830000	0.747107	0.365433	43.745475
32.308498	0.018836	0.163607	0.164688	95.196722	7.852076	0.603846	130.981271	130.981271	130.981271	4.358615	0.687469	2.830000	0.729548	0.360414	44.335321
32.773887	0.019379	0.165915	0.167043	95.420404	7.965823	0.602182	130.250962	130.250962	130.250962	4.359358	0.741845	2.830000	0.711805	0.355268	44.929460
33.245979	0.019937	0.168254	0.169431	95.643124	8.085919	0.600458	129.510034	129.510034	129.510034	4.359769	0.801040	2.830000	0.693893	0.349991	45.527540
33.724872	0.020512	0.170624	0.171853	95.864847	8.212841	0.598672	128.758393	128.758393	128.758393	4.359824	0.865535	2.830000	0.675826	0.344582	46.129160
34.210663	0.021103	0.173027	0.174309	96.085533	8.347112	0.596821	127.995949	127.995949	127.995949	4.359497	0.935868	2.830000	0.657617	0.339039	46.733865
34.703452	0.021710	0.175461	0.176799	96.305143	8.489308	0.594904	127.222616	127.222616	127.222616	4.358762	1.012638	2.830000	0.639285	0.333361	47.341141
35.203338	0.022336	0.177928	0.179325	96.523637	8.640065	0.592919	126.438315	126.438315	126.438315	4.357591	1.096514	2.830000	0.620846	0.327544	47.950403
35.710426	0.022979	0.180428	0.181886	96.740973	8.800087	0.590863	125.642972	125.642972	125.642972	4.355958	1.188240	2.830000	0.602320	0.321588	48.560990
36.224818	0.023640	0.182962	0.184483	96.957107	8.970153	0.588735	124.836519	124.836519	124.836519	4.353832	1.288649	2.830000	0.583728	0.315491	49.172152
36.746619	0.024321	0.185529	0.187116	97.171996	9.151129	0.586532	124.018899	124.018899	124.018899	4.351184	1.398672	2.830000	0.565091	0.309251	49.783039
37.275937	0.025020	0.188130	0.189786	97.385593	9.343981	0.584253	123.190058	123.190058	123.190058	4.347982	1.519349	2.830000	0.546432	0.302869	50.392691
37.812880	0.025740	0.190765	0.192494	97.597853	9.549789	0.581895	122.349953	122.349953	122.349953	4.344197	1.651843	2.830000	0.527777	0.296342	51.000014
38.357556	0.026480	0.193435	0.195239	97.808727	9.769761	0.579456	121.498548	121.498548	121.498548	4.339795	1.797460	2.830000	0.509152	0.289669	51.603766
38.910079	0.027242	0.196140	0.198023	98.018168	10.005258	0.576934	120.635819	120.635819	120.635819	4.334745	1.957657	2.830000	0.490585	0.282851	52.202535
39.470560	0.028025	0.198880	0.200845	98.226124	10.257814	0.574327	119.761751	119.761751	119.761751	4.329011	2.134069	2.830000	0.472105	0.275887	52.794708
40.039115	0.028830	0.201657	0.203707	98.432545	10.529166	0.571633	118.876338	118.876338	118.876338	4.322562	2.328520	2.830000	0.453742	0.268777	53.378444
40.615860	0.029658	0.204469	0.206609	98.637380	10.821286	0.568850	117.979588	117.979588	117.979588	4.315363	2.543054	2.830000	0.435529	0.261522	53.951631
41.200912	0.030510	0.207318	0.209551	98.840575	11.136424	0.565976	117.071519	117.071519	117.071519	4.307380	2.779947	2.830000	0.417499	0.254121	54.511840
41.794392	0.031386	0.210204	0.212534	99.042077	11.477157	0.563010	116.152163	116.152163	116.152163	4.298578	3.041740	2.830000	0.399687	0.246577	55.056272
42.396421	0.032287	0.213127	0.215558	99.241832	11.846447	0.559948	115.221563	115.221563	115.221563	4.288924	3.331248	2.830000	0.382129	0.238890	55.581682
43.007121	0.033213	0.216087	0.218625	99.439784	12.247718	0.556790	114.279778	114.279778	114.279778	4.278383	3.651592	2.830000	0.364864	0.231063	56.084299
43.626619	0.034166	0.219086	0.221734	99.635877	12.684939	0.553534	113.326879	113.326879	113.326879	4.266922	4.006201	2.830000	0.347928	0.223099	56.559718
44.255040	0.035145	0.222122	0.224886	99.830056	13.162747	0.550178	112.362956	112.362956	112.362956	4.254508	4.398830	2.830000	0.331362	0.215001	57.002764
44.892513	0.036153	0.225198	0.228081	100.022265	13.686572	0.546722	111.388109	111.388109	111.388109	4.241108	4.833542	2.830000	0.315207	0.206772	57.407326
45.539168	0.037188	0.228312	0.231321	100.212445	14.262823	0.543163	110.402457	110.402457	110.402457	4.226691	5.314689	2.830000	0.299503	0.198418	57.766144
46.195138	0.038254	0.231465	0.234605	100.400541	14.899096	0.539500	109.406135	109.406135	109.406135	4.211227	5.846858	2.830000	0.284293	0.189944	58.070531
46.860558	0.039349	0.234658	0.237934	100.586494	15.604455	0.535733	108.399295	108.399295	108.399295	4.194686	6.434774	2.830000	0.269619	0.181358	58.310022
47.535562	0.040475	0.237891	0.241310	100.770249	16.389779	0.531860	107.382106	107.382106	107.382106	4.177042	7.083161	2.830000	0.255524	0.172669	58.471904
48.220290	0.041633	0.241164	0.244731	100.951749	17.268206	0.527881	106.354752	106.354752	106.354752	4.158269	7.796527	2.830000	0.242052	0.163885	58.540604
48.914880	0.042823	0.244478	0.248200	101.130937	18.255699	0.523795	105.317438	105.317438	105.317438	4.138344	8.578866	2.830000	0.229244	0.155020	58.496872
49.619476	0.044047	0.247832	0.251716	101.307758	19.371755	0.519603	104.270385	104.270385	104.270385	4.117244	9.433257	2.830000	0.217144	0.146089	58.316674
50.334221	0.045306	0.251227	0.255280	101.482157	20.640306	0.515304	103.213832	103.213832	103.213832	4.094951	10.361347	2.830000	0.205795	0.137110	57.969694
51.059262	0.046600	0.254664	0.258893	101.654080	22.090802	0.510897	102.148037	102.148037	102.148037	4.071449	11.362709	2.830000	0.195236	0.128108	57.417284
51.794747	0.047930	0.258143	0.262555	101.823474	23.759473	0.506384	101.073275	101.073275	101.073275	4.046725	12.434101	2.830000	0.185510	0.119110	56.609635
52.540826	0.049298	0.261663	0.266266	101.990288	25.690594	0.501766	99.989837	99.989837	99.989837	4.020767	13.568653	2.830000	0.176655	0.110157	55.481883
53.297652	0.050703	0.265225	0.270028	102.154472	27.937336	0.497042	98.898035	98.898035	98.898035	3.993570	14.755077	2.830000	0.168710	0.101298	53.948813
54.065379	0.052149	0.268830	0.273842	102.315977	30.561045	0.492214	97.798194	97.798194	97.798194	3.965129	15.977030	2.830000	0.161710	0.092602	51.897836
54.844166	0.053634	0.272478	0.277706	102.474756	33.626311	0.487284	96.690660	96.690660	96.690660	3.935444	17.212785	2.830000	0.155689	0.084160	49.180365
55.634170	0.055161	0.276168	0.281623	102.630765	37.186066	0.482253	95.575792	95.575792	95.575792	3.904519	18.435435	2.830000	0.150681	0.076104	45.603132
56.435554	0.056731	0.279902	0.285593	102.783962	41.245542	0.477123	94.453964	94.453964	94.453964	3.872362	19.613782	2.830000	0.146713	0.068613	40.925001
57.248482	0.058345	0.283678	0.289616	102.934306	45.688134	0.471897	93.325568	93.325568	93.325568	3.838983	20.714017	2.830000	0.143814	0.061942	34.874096
58.073119	0.060003	0.287499	0.293693	103.081760	50.154543	0.466576	92.191007	92.191007	92.191007	3.804399	21.702132	2.830000	0.142006	0.056426	27.215337
58.909635	0.061708	0.291362	0.297825	103.226288	53.930755	0.461164	91.050697	91.050697	91.050697	3.768629	22.546799	2.830000	0.141312	0.052475	17.904069
59.758201	0.063460	0.295270	0.302012	103.367859	56.043315	0.455663	89.905068	89.905068	89.905068	3.731696	23.222310	2.830000	0.141747	0.050497	7.299647
60.618990	0.065260	0.299221	0.306255	103.506443	55.758651	0.450077	88.754558	88.754558	88.754558	3.693628	23.711031	2.830000	0.143327	0.050754	-3.753014
61.492178	0.067110	0.303216	0.310554	103.642015	53.156537	0.444409	87.599617	87.599617	87.599617	3.654456	24.004932	2.830000	0.146061	0.053239	-14.202171
