Freq (hertz)	Ra (norm)	Xa (norm)	Za (norm)	SPL (dB)	Ze (ohms)	Xd (mm) 	WPhase (deg)	UPhase (deg)	CPhase (deg)	Delay (msec)	Efficiency (%)	Ein (volts)	Pin (watts)	Iin (amps)	ZePhase (deg)

10.000000	0.000117	0.012973	0.012974	29.448036	2.664419	1.688854	-12.781121	-12.781121	-12.781121	3.621791	0.000419	2.830000	2.946946	1.062145	11.363529
10.144045	0.000120	0.013160	0.013161	29.952907	2.666367	1.688948	-12.969016	-12.969016	-12.969016	3.624982	0.000445	2.830000	2.943064	1.061369	11.529828
10.290166	0.000124	0.013350	0.013350	30.458014	2.668376	1.689043	-13.159788	-13.159788	-13.159788	3.628270	0.000472	2.830000	2.939067	1.060570	11.698638
10.438391	0.000127	0.013542	0.013543	30.963367	2.670448	1.689142	-13.353486	-13.353486	-13.353486	3.631661	0.000501	2.830000	2.934954	1.059747	11.870001
10.588751	0.000131	0.013737	0.013738	31.468972	2.672587	1.689243	-13.550160	-13.550160	-13.550160	3.635156	0.000532	2.830000	2.930721	1.058899	12.043959
10.741277	0.000135	0.013935	0.013935	31.974836	2.674792	1.689348	-13.749863	-13.749863	-13.749863	3.638761	0.000565	2.830000	2.926365	1.058026	12.220555
10.896000	0.000139	0.014136	0.014136	32.480969	2.677069	1.689455	-13.952646	-13.952646	-13.952646	3.642478	0.000600	2.830000	2.921881	1.057126	12.399833
11.052951	0.000143	0.014339	0.014340	32.987378	2.679417	1.689564	-14.158563	-14.158563	-14.158563	3.646310	0.000637	2.830000	2.917266	1.056200	12.581838
11.212164	0.000147	0.014546	0.014546	33.494071	2.681841	1.689677	-14.367670	-14.367670	-14.367670	3.650263	0.000677	2.830000	2.912516	1.055245	12.766616
11.373670	0.000151	0.014755	0.014756	34.001058	2.684343	1.689793	-14.580022	-14.580022	-14.580022	3.654340	0.000719	2.830000	2.907628	1.054262	12.954213
11.537502	0.000155	0.014968	0.014968	34.508348	2.686925	1.689912	-14.795677	-14.795677	-14.795677	3.658545	0.000763	2.830000	2.902596	1.053249	13.144677
11.703695	0.000160	0.015183	0.015184	35.015949	2.689590	1.690035	-15.014694	-15.014694	-15.014694	3.662883	0.000811	2.830000	2.897418	1.052205	13.338057
11.872281	0.000165	0.015402	0.015403	35.523872	2.692342	1.690160	-15.237133	-15.237133	-15.237133	3.667358	0.000861	2.830000	2.892088	1.051129	13.534403
12.043295	0.000169	0.015624	0.015625	36.032127	2.695183	1.690289	-15.463057	-15.463057	-15.463057	3.671975	0.000915	2.830000	2.886602	1.050021	13.733766
12.216773	0.000174	0.015849	0.015850	36.540724	2.698117	1.690422	-15.692527	-15.692527	-15.692527	3.676738	0.000972	2.830000	2.880955	1.048880	13.936197
12.392750	0.000179	0.016077	0.016078	37.049673	2.701147	1.690558	-15.925610	-15.925610	-15.925610	3.681653	0.001033	2.830000	2.875144	1.047703	14.141750
12.571262	0.000185	0.016308	0.016309	37.558986	2.704276	1.690698	-16.162371	-16.162371	-16.162371	3.686726	0.001098	2.830000	2.869162	1.046491	14.350478
12.752345	0.000190	0.016543	0.016544	38.068674	2.707508	1.690841	-16.402878	-16.402878	-16.402878	3.691961	0.001167	2.830000	2.863005	1.045242	14.562438
12.936037	0.000195	0.016782	0.016783	38.578749	2.710846	1.690988	-16.647201	-16.647201	-16.647201	3.697365	0.001240	2.830000	2.856668	1.043954	14.777686
13.122374	0.000201	0.017023	0.017024	39.089223	2.714296	1.691139	-16.895412	-16.895412	-16.895412	3.702943	0.001319	2.830000	2.850145	1.042628	14.996280
13.311396	0.000207	0.017268	0.017270	39.600109	2.717860	1.691294	-17.147584	-17.147584	-17.147584	3.708701	0.001402	2.830000	2.843432	1.041260	15.218280
13.503140	0.000213	0.017517	0.017518	40.111420	2.721544	1.691454	-17.403793	-17.403793	-17.403793	3.714647	0.001491	2.830000	2.836521	1.039851	15.443747
13.697647	0.000219	0.017769	0.017771	40.623169	2.725351	1.691617	-17.664115	-17.664115	-17.664115	3.720787	0.001586	2.830000	2.829409	1.038398	15.672741
13.894955	0.000226	0.018025	0.018027	41.135371	2.729287	1.691785	-17.928630	-17.928630	-17.928630	3.727128	0.001687	2.830000	2.822087	1.036901	15.905328
14.095105	0.000232	0.018285	0.018286	41.648039	2.733356	1.691957	-18.197420	-18.197420	-18.197420	3.733677	0.001794	2.830000	2.814551	1.035357	16.141572
14.298139	0.000239	0.018548	0.018550	42.161189	2.737564	1.692134	-18.470568	-18.470568	-18.470568	3.740443	0.001909	2.830000	2.806794	1.033766	16.381541
14.504097	0.000246	0.018815	0.018817	42.674836	2.741915	1.692315	-18.748161	-18.748161	-18.748161	3.747432	0.002032	2.830000	2.798810	1.032125	16.625301
14.713021	0.000253	0.019086	0.019088	43.188997	2.746416	1.692501	-19.030286	-19.030286	-19.030286	3.754654	0.002163	2.830000	2.790591	1.030434	16.872924
14.924955	0.000260	0.019361	0.019363	43.703687	2.751072	1.692691	-19.317036	-19.317036	-19.317036	3.762117	0.002302	2.830000	2.782131	1.028690	17.124482
15.139942	0.000268	0.019640	0.019642	44.218925	2.755890	1.692887	-19.608503	-19.608503	-19.608503	3.769831	0.002451	2.830000	2.773423	1.026892	17.380047
15.358026	0.000275	0.019923	0.019925	44.734727	2.760876	1.693088	-19.904785	-19.904785	-19.904785	3.777805	0.002610	2.830000	2.764459	1.025037	17.639695
15.579251	0.000283	0.020210	0.020212	45.251113	2.766037	1.693293	-20.205980	-20.205980	-20.205980	3.786050	0.002780	2.830000	2.755232	1.023125	17.903504
15.803663	0.000292	0.020501	0.020503	45.768102	2.771380	1.693504	-20.512191	-20.512191	-20.512191	3.794575	0.002962	2.830000	2.745734	1.021152	18.171553
16.031307	0.000300	0.020796	0.020798	46.285713	2.776912	1.693721	-20.823524	-20.823524	-20.823524	3.803392	0.003156	2.830000	2.735957	1.019118	18.443924
16.262231	0.000309	0.021095	0.021098	46.803967	2.782642	1.693942	-21.140087	-21.140087	-21.140087	3.812513	0.003363	2.830000	2.725893	1.017019	18.720700
16.496481	0.000318	0.021399	0.021401	47.322886	2.788578	1.694170	-21.461992	-21.461992	-21.461992	3.821950	0.003585	2.830000	2.715533	1.014854	19.001966
16.734105	0.000327	0.021707	0.021710	47.842491	2.794728	1.694403	-21.789355	-21.789355	-21.789355	3.831715	0.003823	2.830000	2.704868	1.012621	19.287812
16.975152	0.000337	0.022020	0.022022	48.362806	2.801102	1.694641	-22.122296	-22.122296	-22.122296	3.841822	0.004077	2.830000	2.693889	1.010317	19.578327
17.219671	0.000346	0.022337	0.022340	48.883854	2.807710	1.694886	-22.460938	-22.460938	-22.460938	3.852285	0.004349	2.830000	2.682588	1.007939	19.873605
17.467712	0.000356	0.022658	0.022661	49.405661	2.814561	1.695136	-22.805408	-22.805408	-22.805408	3.863120	0.004640	2.830000	2.670954	1.005485	20.173741
17.719326	0.000367	0.022985	0.022988	49.928252	2.821667	1.695393	-23.155840	-23.155840	-23.155840	3.874341	0.004952	2.830000	2.658978	1.002953	20.478834
17.974565	0.000377	0.023316	0.023319	50.451653	2.829039	1.695656	-23.512369	-23.512369	-23.512369	3.885966	0.005286	2.830000	2.646649	1.000340	20.788985
18.233480	0.000388	0.023651	0.023655	50.975893	2.836688	1.695925	-23.875136	-23.875136	-23.875136	3.898011	0.005645	2.830000	2.633957	0.997642	21.104298
18.496125	0.000400	0.023992	0.023995	51.501001	2.844629	1.696201	-24.244289	-24.244289	-24.244289	3.910496	0.006029	2.830000	2.620891	0.994857	21.424880
18.762553	0.000411	0.024337	0.024341	52.027007	2.852874	1.696483	-24.619978	-24.619978	-24.619978	3.923440	0.006442	2.830000	2.607441	0.991982	21.750841
19.032818	0.000423	0.024688	0.024691	52.553941	2.861437	1.696772	-25.002362	-25.002362	-25.002362	3.936863	0.006885	2.830000	2.593594	0.989014	22.082295
19.306977	0.000435	0.025043	0.025047	53.081837	2.870334	1.697068	-25.391603	-25.391603	-25.391603	3.950787	0.007361	2.830000	2.579339	0.985948	22.419358
19.585085	0.000448	0.025404	0.025408	53.610729	2.879581	1.697370	-25.787871	-25.787871	-25.787871	3.965235	0.007873	2.830000	2.564664	0.982782	22.762152
19.867199	0.000461	0.025770	0.025774	54.140651	2.889195	1.697680	-26.191342	-26.191342	-26.191342	3.980233	0.008423	2.830000	2.549556	0.979511	23.110801
20.153377	0.000474	0.026141	0.026145	54.671640	2.899195	1.697996	-26.602200	-26.602200	-26.602200	3.995805	0.009015	2.830000	2.534003	0.976133	23.465432
20.443677	0.000488	0.026517	0.026521	55.203736	2.909599	1.698320	-27.020634	-27.020634	-27.020634	4.011979	0.009652	2.830000	2.517991	0.972643	23.826179
20.738158	0.000502	0.026899	0.026903	55.736978	2.920428	1.698651	-27.446844	-27.446844	-27.446844	4.028785	0.010338	2.830000	2.501506	0.969036	24.193176
21.036882	0.000517	0.027286	0.027291	56.271407	2.931705	1.698989	-27.881036	-27.881036	-27.881036	4.046253	0.011078	2.830000	2.484536	0.965309	24.566565
21.339908	0.000532	0.027679	0.027684	56.807068	2.943453	1.699334	-28.323426	-28.323426	-28.323426	4.064418	0.011875	2.830000	2.467064	0.961456	24.946492
21.647300	0.000547	0.028077	0.028083	57.344005	2.955697	1.699687	-28.774238	-28.774238	-28.774238	4.083315	0.012736	2.830000	2.449077	0.957473	25.333106
21.959119	0.000563	0.028481	0.028487	57.882266	2.968464	1.700048	-29.233708	-29.233708	-29.233708	4.102981	0.013666	2.830000	2.430559	0.953355	25.726561
22.275430	0.000580	0.028891	0.028897	58.421902	2.981783	1.700416	-29.702082	-29.702082	-29.702082	4.123457	0.014671	2.830000	2.411494	0.949097	26.127020
22.596297	0.000596	0.029307	0.029313	58.962963	2.995685	1.700791	-30.179617	-30.179617	-30.179617	4.144786	0.015757	2.830000	2.391866	0.944692	26.534646
22.921786	0.000614	0.029729	0.029736	59.505504	3.010204	1.701174	-30.666582	-30.666582	-30.666582	4.167015	0.016934	2.830000	2.371659	0.940136	26.949611
23.251963	0.000631	0.030157	0.030164	60.049583	3.025375	1.701565	-31.163259	-31.163259	-31.163259	4.190194	0.018208	2.830000	2.350855	0.935421	27.372092
23.586897	0.000650	0.030591	0.030598	60.595258	3.041237	1.701964	-31.669946	-31.669946	-31.669946	4.214376	0.019590	2.830000	2.329438	0.930542	27.802272
23.926655	0.000669	0.031032	0.031039	61.142592	3.057833	1.702370	-32.186954	-32.186954	-32.186954	4.239618	0.021089	2.830000	2.307387	0.925492	28.240340
24.271307	0.000688	0.031478	0.031486	61.691651	3.075206	1.702783	-32.714610	-32.714610	-32.714610	4.265983	0.022718	2.830000	2.284687	0.920263	28.686493
24.620924	0.000708	0.031931	0.031939	62.242504	3.093407	1.703205	-33.253259	-33.253259	-33.253259	4.293538	0.024490	2.830000	2.261316	0.914849	29.140931
24.975577	0.000728	0.032391	0.032399	62.795221	3.112488	1.703633	-33.803266	-33.803266	-33.803266	4.322355	0.026418	2.830000	2.237255	0.909240	29.603866
25.335338	0.000750	0.032857	0.032866	63.349880	3.132507	1.704069	-34.365013	-34.365013	-34.365013	4.352512	0.028519	2.830000	2.212485	0.903430	30.075513
25.700282	0.000771	0.033330	0.033339	63.906560	3.153528	1.704512	-34.938906	-34.938906	-34.938906	4.384093	0.030812	2.830000	2.186985	0.897408	30.556097
26.070482	0.000794	0.033810	0.033819	64.465345	3.175619	1.704962	-35.525376	-35.525376	-35.525376	4.417191	0.033317	2.830000	2.160733	0.891165	31.045848
26.446016	0.000817	0.034296	0.034306	65.026323	3.198854	1.705418	-36.124875	-36.124875	-36.124875	4.451905	0.036056	2.830000	2.133708	0.884692	31.545006
26.826958	0.000840	0.034790	0.034800	65.589587	3.223318	1.705881	-36.737889	-36.737889	-36.737889	4.488344	0.039056	2.830000	2.105887	0.877977	32.053818
27.213388	0.000865	0.035291	0.035301	66.155235	3.249099	1.706350	-37.364928	-37.364928	-37.364928	4.526626	0.042347	2.830000	2.077248	0.871011	32.572537
27.605384	0.000890	0.035798	0.035810	66.723370	3.276299	1.706824	-38.006540	-38.006540	-38.006540	4.566880	0.045961	2.830000	2.047767	0.863780	33.101426
28.003026	0.000916	0.036314	0.036325	67.294103	3.305026	1.707304	-38.663306	-38.663306	-38.663306	4.609249	0.049938	2.830000	2.017421	0.856272	33.640753
28.406397	0.000942	0.036836	0.036848	67.867546	3.335404	1.707787	-39.335849	-39.335849	-39.335849	4.653887	0.054320	2.830000	1.986185	0.848473	34.190793
28.815578	0.000970	0.037366	0.037379	68.443824	3.367567	1.708275	-40.024832	-40.024832	-40.024832	4.700963	0.059158	2.830000	1.954035	0.840369	34.751828
29.230652	0.000998	0.037904	0.037917	69.023065	3.401666	1.708765	-40.730968	-40.730968	-40.730968	4.750667	0.064508	2.830000	1.920945	0.831945	35.324145
29.651706	0.001027	0.038449	0.038463	69.605406	3.437871	1.709257	-41.455022	-41.455022	-41.455022	4.803203	0.070437	2.830000	1.886890	0.823184	35.908033
30.078825	0.001056	0.039003	0.039017	70.190991	3.476369	1.709750	-42.197816	-42.197816	-42.197816	4.858800	0.077021	2.830000	1.851844	0.814068	36.503785
30.512097	0.001087	0.039564	0.039579	70.779974	3.517373	1.710242	-42.960237	-42.960237	-42.960237	4.917710	0.084348	2.830000	1.815782	0.804578	37.111690
30.951609	0.001119	0.040133	0.040149	71.372518	3.561124	1.710731	-43.743243	-43.743243	-43.743243	4.980213	0.092522	2.830000	1.778677	0.794693	37.732035
31.397452	0.001151	0.040710	0.040727	71.968797	3.607893	1.711215	-44.547868	-44.547868	-44.547868	5.046621	0.101663	2.830000	1.740504	0.784391	38.365097
31.849718	0.001184	0.041296	0.041313	72.568995	3.657989	1.711692	-45.375238	-45.375238	-45.375238	5.117278	0.111912	2.830000	1.701237	0.773649	39.011136
32.308498	0.001219	0.041890	0.041908	73.173307	3.711767	1.712159	-46.226573	-46.226573	-46.226573	5.192574	0.123437	2.830000	1.660849	0.762440	39.670391
32.773887	0.001254	0.042493	0.042511	73.781943	3.769635	1.712613	-47.103206	-47.103206	-47.103206	5.272939	0.136434	2.830000	1.619319	0.750736	40.343063
33.245979	0.001291	0.043104	0.043123	74.395124	3.832060	1.713049	-48.006590	-48.006590	-48.006590	5.358861	0.151139	2.830000	1.576621	0.738506	41.029308
33.724872	0.001328	0.043724	0.043744	75.013088	3.899590	1.713463	-48.938318	-48.938318	-48.938318	5.450885	0.167832	2.830000	1.532734	0.725717	41.729208
34.210663	0.001367	0.044353	0.044374	75.636087	3.972862	1.713848	-49.900140	-49.900140	-49.900140	5.549628	0.186854	2.830000	1.487639	0.712333	42.442757
34.703452	0.001406	0.044991	0.045013	76.264390	4.052626	1.714199	-50.893981	-50.893981	-50.893981	5.655786	0.208612	2.830000	1.441318	0.698313	43.169815
35.203338	0.001447	0.045638	0.045661	76.898285	4.139768	1.714505	-51.921970	-51.921970	-51.921970	5.770149	0.233605	2.830000	1.393760	0.683613	43.910071
35.710426	0.001489	0.046294	0.046318	77.538080	4.235348	1.714758	-52.986460	-52.986460	-52.986460	5.893615	0.262443	2.830000	1.344957	0.668186	44.662975
36.224818	0.001532	0.046960	0.046985	78.184100	4.340637	1.714944	-54.090070	-54.090070	-54.090070	6.027205	0.295878	2.830000	1.294907	0.651978	45.427654
36.746619	0.001576	0.047635	0.047661	78.836696	4.457179	1.715048	-55.235714	-55.235714	-55.235714	6.172090	0.334845	2.830000	1.243617	0.634931	46.202794
37.275937	0.001622	0.048320	0.048347	79.496239	4.586865	1.715053	-56.426652	-56.426652	-56.426652	6.329609	0.380512	2.830000	1.191105	0.616979	46.986479
37.812880	0.001669	0.049015	0.049043	80.163124	4.732033	1.714936	-57.666538	-57.666538	-57.666538	6.501302	0.434352	2.830000	1.137404	0.598052	47.775955
38.357556	0.001718	0.049720	0.049749	80.837771	4.895613	1.714669	-58.959486	-58.959486	-58.959486	6.688944	0.498236	2.830000	1.082563	0.578069	48.567310
38.910079	0.001767	0.050435	0.050466	81.520626	5.081322	1.714218	-60.310137	-60.310137	-60.310137	6.894587	0.574560	2.830000	1.026654	0.556942	49.354990
39.470560	0.001819	0.051160	0.051192	82.212155	5.293941	1.713541	-61.723753	-61.723753	-61.723753	7.120607	0.666418	2.830000	0.969782	0.534573	50.131111
40.039115	0.001871	0.051895	0.051929	82.912851	5.539722	1.712586	-63.206314	-63.206314	-63.206314	7.369765	0.777837	2.830000	0.912087	0.510856	50.884409
40.615860	0.001926	0.052641	0.052676	83.623223	5.826989	1.711288	-64.764642	-64.764642	-64.764642	7.645272	0.914091	2.830000	0.853762	0.485671	51.598635
41.200912	0.001982	0.053398	0.053435	84.343796	6.167051	1.709565	-66.406548	-66.406548	-66.406548	7.950875	1.082137	2.830000	0.795061	0.458890	52.250042
41.794392	0.002039	0.054165	0.054204	85.075102	6.575630	1.707315	-68.141000	-68.141000	-68.141000	8.290944	1.291169	2.830000	0.736326	0.430377	52.803302
42.396421	0.002098	0.054944	0.054984	85.817663	7.075156	1.704408	-69.978334	-69.978334	-69.978334	8.670581	1.553328	2.830000	0.678006	0.399991	53.204675
43.007121	0.002159	0.055734	0.055775	86.571981	7.698583	1.700680	-71.930491	-71.930491	-71.930491	9.095739	1.884488	2.830000	0.620693	0.367600	53.370098
43.626619	0.002222	0.056534	0.056578	87.338500	8.495906	1.695921	-74.011305	-74.011305	-74.011305	9.573340	2.304897	2.830000	0.565168	0.333102	53.163443
44.255040	0.002286	0.057347	0.057392	88.117575	9.545535	1.689864	-76.236828	-76.236828	-76.236828	10.111395	2.839005	2.830000	0.512449	0.296474	52.354724
44.892513	0.002352	0.058171	0.058218	88.909412	10.973838	1.682167	-78.625703	-78.625703	-78.625703	10.719097	3.512903	2.830000	0.463876	0.257886	50.535132
45.539168	0.002421	0.059007	0.059056	89.713988	12.983640	1.672390	-81.199577	-81.199577	-81.199577	11.406843	4.346229	2.830000	0.421191	0.217967	46.936066
46.195138	0.002491	0.059854	0.059906	90.530939	15.855759	1.659965	-83.983530	-83.983530	-83.983530	12.186129	5.333790	2.830000	0.386662	0.178484	40.048511
46.860558	0.002563	0.060714	0.060768	91.359408	19.635663	1.644165	-87.006466	-87.006466	-87.006466	13.069191	6.414511	2.830000	0.363213	0.144126	27.063765
47.535562	0.002637	0.061586	0.061643	92.197828	22.496586	1.624057	-90.301412	-90.301412	-90.301412	14.068231	7.440726	2.830000	0.354579	0.125797	5.130135
48.220290	0.002714	0.062471	0.062530	93.043645	20.537371	1.598455	-93.905540	-93.905540	-93.905540	15.193938	8.190730	2.830000	0.365443	0.137798	-20.427974
48.914880	0.002792	0.063368	0.063430	93.892951	15.654753	1.565871	-97.859705	-97.859705	-97.859705	16.452942	8.466190	2.830000	0.401523	0.180776	-38.293641
49.619476	0.002873	0.064278	0.064342	94.740036	11.578589	1.524473	-102.207099	-102.207099	-102.207099	17.843740	8.220699	2.830000	0.469510	0.244417	-47.251841
50.334221	0.002957	0.065201	0.065268	95.576886	8.806040	1.472087	-106.990524	-106.990524	-106.990524	19.350727	7.583836	2.830000	0.576692	0.321370	-50.647403
51.059262	0.003042	0.066137	0.066207	96.392704	6.939432	1.406265	-112.247647	-112.247647	-112.247647	20.936367	6.758125	2.830000	0.730067	0.407814	-50.759487
51.794747	0.003130	0.067087	0.067160	97.173610	5.647946	1.324492	-118.003715	-118.003715	-118.003715	22.532745	5.910186	2.830000	0.934687	0.501067	-48.764976
52.540826	0.003221	0.068050	0.068126	97.902798	4.730203	1.224570	-124.261735	-124.261735	-124.261735	24.035759	5.133887	2.830000	1.191184	0.598283	-45.288680
53.297652	0.003315	0.069027	0.069106	98.561479	4.066735	1.105213	-130.991385	-130.991385	-130.991385	25.307700	4.464839	2.830000	1.492857	0.695890	-40.708439
54.065379	0.003411	0.070017	0.070100	99.130853	3.584460	0.966756	-138.119800	-138.119800	-138.119800	26.194579	3.905921	2.830000	1.823490	0.789519	-35.301708
54.844166	0.003509	0.071022	0.071109	99.595013	3.236524	0.811721	-145.529006	-145.529006	-145.529006	26.559950	3.445901	2.830000	2.157678	0.874395	-29.313716
55.634170	0.003611	0.072041	0.072132	99.944105	2.991222	0.644928	-153.064319	-153.064319	-153.064319	26.326089	3.069507	2.830000	2.464948	0.946102	-22.982146
56.435554	0.003716	0.073075	0.073169	100.176590	2.825890	0.472910	-160.554081	-160.554081	-160.554081	25.503013	2.761912	2.830000	2.716913	1.001454	-16.535027
57.248482	0.003823	0.074123	0.074222	100.299604	2.723536	0.302836	-167.835312	-167.835312	-167.835312	24.187794	2.510328	2.830000	2.894378	1.039090	-10.175013
58.073119	0.003934	0.075186	0.075289	100.327242	2.671020	0.141927	-174.776280	-174.776280	-174.776280	22.533702	2.304307	2.830000	2.990908	1.059520	-4.062649
58.909635	0.004048	0.076265	0.076372	100.277565	2.658071	0.034202	178.711116	-181.288884	178.711116	20.706693	2.135535	2.830000	3.011735	1.064682	1.692424
59.758201	0.004166	0.077358	0.077471	100.169501	2.676703	0.151166	172.670636	-187.329364	172.670636	18.849953	1.997483	2.830000	2.969583	1.057271	7.029899
60.618990	0.004286	0.078468	0.078585	100.020531	2.720812	0.269329	167.109279	-192.890721	167.109279	17.066650	1.885061	2.830000	2.879994	1.040131	11.929725
61.492178	0.004410	0.079593	0.079715	99.845416	2.785849	0.372956	162.008202	-197.991798	162.008202	15.418924	1.794319	2.830000	2.757882	1.015848	16.400172
