Freq (hertz)	Ra (norm)	Xa (norm)	Za (norm)	SPL (dB)	Ze (ohms)	Xd (mm) 	WPhase (deg)	UPhase (deg)	CPhase (deg)	Delay (msec)	Efficiency (%)	Ein (volts)	Pin (watts)	Iin (amps)	ZePhase (deg)

10.000000	0.000002	0.022703	0.022703	-36.828759	6.520479	0.368864	175.354284	175.354284	175.354284	1.289244	0.000000	2.830000	1.225217	0.434017	4.039902
10.144045	0.000002	0.023030	0.023030	-36.331941	6.521074	0.368848	175.287430	175.287430	175.287430	1.289191	0.000000	2.830000	1.225016	0.433978	4.098001
10.290166	0.000002	0.023362	0.023362	-35.835126	6.521687	0.368831	175.219616	175.219616	175.219616	1.289135	0.000000	2.830000	1.224810	0.433937	4.156933
10.438391	0.000002	0.023699	0.023699	-35.338314	6.522317	0.368813	175.150827	175.150827	175.150827	1.289079	0.000000	2.830000	1.224599	0.433895	4.216710
10.588751	0.000002	0.024041	0.024041	-34.841503	6.522966	0.368795	175.081052	175.081052	175.081052	1.289020	0.000000	2.830000	1.224381	0.433852	4.277344
10.741277	0.000002	0.024388	0.024388	-34.344696	6.523634	0.368777	175.010274	175.010274	175.010274	1.288960	0.000000	2.830000	1.224156	0.433807	4.338846
10.896000	0.000002	0.024739	0.024739	-33.847890	6.524321	0.368758	174.938480	174.938480	174.938480	1.288899	0.000000	2.830000	1.223926	0.433762	4.401229
11.052951	0.000002	0.025096	0.025096	-33.351087	6.525028	0.368738	174.865656	174.865656	174.865656	1.288835	0.000000	2.830000	1.223688	0.433715	4.464506
11.212164	0.000002	0.025458	0.025458	-32.854287	6.525755	0.368718	174.791786	174.791786	174.791786	1.288770	0.000000	2.830000	1.223444	0.433666	4.528689
11.373670	0.000002	0.025825	0.025825	-32.357489	6.526504	0.368697	174.716856	174.716856	174.716856	1.288702	0.000000	2.830000	1.223193	0.433617	4.593791
11.537502	0.000002	0.026198	0.026198	-31.860694	6.527275	0.368676	174.640851	174.640851	174.640851	1.288633	0.000000	2.830000	1.222934	0.433565	4.659825
11.703695	0.000002	0.026576	0.026576	-31.363902	6.528068	0.368653	174.563755	174.563755	174.563755	1.288562	0.000000	2.830000	1.222668	0.433513	4.726804
11.872281	0.000002	0.026959	0.026959	-30.867113	6.528884	0.368631	174.485553	174.485553	174.485553	1.288489	0.000000	2.830000	1.222395	0.433458	4.794741
12.043295	0.000003	0.027348	0.027348	-30.370327	6.529724	0.368608	174.406230	174.406230	174.406230	1.288413	0.000000	2.830000	1.222113	0.433403	4.863651
12.216773	0.000003	0.027742	0.027742	-29.873544	6.530589	0.368584	174.325768	174.325768	174.325768	1.288336	0.000000	2.830000	1.221824	0.433345	4.933546
12.392750	0.000003	0.028142	0.028142	-29.376765	6.531479	0.368559	174.244152	174.244152	174.244152	1.288256	0.000000	2.830000	1.221526	0.433286	5.004442
12.571262	0.000003	0.028548	0.028548	-28.879988	6.532394	0.368533	174.161366	174.161366	174.161366	1.288174	0.000000	2.830000	1.221219	0.433226	5.076350
12.752345	0.000003	0.028960	0.028960	-28.383215	6.533337	0.368507	174.077393	174.077393	174.077393	1.288089	0.000000	2.830000	1.220904	0.433163	5.149287
12.936037	0.000003	0.029378	0.029378	-27.886445	6.534307	0.368480	173.992216	173.992216	173.992216	1.288002	0.000000	2.830000	1.220580	0.433099	5.223267
13.122374	0.000003	0.029802	0.029802	-27.389679	6.535305	0.368453	173.905818	173.905818	173.905818	1.287913	0.000000	2.830000	1.220246	0.433033	5.298303
13.311396	0.000003	0.030232	0.030232	-26.892917	6.536332	0.368424	173.818181	173.818181	173.818181	1.287821	0.000000	2.830000	1.219903	0.432965	5.374412
13.503140	0.000003	0.030668	0.030668	-26.396158	6.537390	0.368395	173.729289	173.729289	173.729289	1.287726	0.000000	2.830000	1.219550	0.432895	5.451607
13.697647	0.000003	0.031111	0.031111	-25.899403	6.538478	0.368365	173.639123	173.639123	173.639123	1.287629	0.000000	2.830000	1.219187	0.432822	5.529905
13.894955	0.000003	0.031560	0.031560	-25.402652	6.539598	0.368334	173.547665	173.547665	173.547665	1.287528	0.000000	2.830000	1.218813	0.432748	5.609321
14.095105	0.000003	0.032015	0.032015	-24.905905	6.540750	0.368302	173.454897	173.454897	173.454897	1.287425	0.000000	2.830000	1.218429	0.432672	5.689870
14.298139	0.000004	0.032477	0.032477	-24.409162	6.541936	0.368269	173.360800	173.360800	173.360800	1.287319	0.000000	2.830000	1.218034	0.432594	5.771568
14.504097	0.000004	0.032946	0.032946	-23.912424	6.543157	0.368236	173.265356	173.265356	173.265356	1.287210	0.000000	2.830000	1.217627	0.432513	5.854432
14.713021	0.000004	0.033422	0.033422	-23.415690	6.544414	0.368201	173.168545	173.168545	173.168545	1.287098	0.000000	2.830000	1.217209	0.432430	5.938477
14.924955	0.000004	0.033904	0.033904	-22.918960	6.545707	0.368165	173.070349	173.070349	173.070349	1.286982	0.000000	2.830000	1.216779	0.432344	6.023721
15.139942	0.000004	0.034394	0.034394	-22.422236	6.547038	0.368128	172.970747	172.970747	172.970747	1.286864	0.000000	2.830000	1.216337	0.432257	6.110179
15.358026	0.000004	0.034890	0.034890	-21.925516	6.548408	0.368091	172.869720	172.869720	172.869720	1.286741	0.000000	2.830000	1.215881	0.432166	6.197869
15.579251	0.000004	0.035394	0.035394	-21.428800	6.549818	0.368052	172.767248	172.767248	172.767248	1.286615	0.000000	2.830000	1.215413	0.432073	6.286809
15.803663	0.000004	0.035905	0.035905	-20.932090	6.551270	0.368012	172.663309	172.663309	172.663309	1.286486	0.000000	2.830000	1.214932	0.431977	6.377014
16.031307	0.000004	0.036423	0.036423	-20.435385	6.552764	0.367970	172.557885	172.557885	172.557885	1.286353	0.000000	2.830000	1.214436	0.431879	6.468503
16.262231	0.000005	0.036949	0.036949	-19.938686	6.554301	0.367928	172.450953	172.450953	172.450953	1.286216	0.000000	2.830000	1.213927	0.431778	6.561294
16.496481	0.000005	0.037483	0.037483	-19.441992	6.555883	0.367885	172.342492	172.342492	172.342492	1.286075	0.000000	2.830000	1.213403	0.431673	6.655405
16.734105	0.000005	0.038024	0.038024	-18.945303	6.557512	0.367840	172.232481	172.232481	172.232481	1.285930	0.000000	2.830000	1.212864	0.431566	6.750854
16.975152	0.000005	0.038574	0.038574	-18.448621	6.559189	0.367794	172.120899	172.120899	172.120899	1.285781	0.000001	2.830000	1.212310	0.431456	6.847659
17.219671	0.000005	0.039131	0.039131	-17.951944	6.560914	0.367746	172.007722	172.007722	172.007722	1.285628	0.000001	2.830000	1.211740	0.431342	6.945840
17.467712	0.000005	0.039696	0.039696	-17.455273	6.562690	0.367697	171.892929	171.892929	171.892929	1.285470	0.000001	2.830000	1.211154	0.431226	7.045415
17.719326	0.000005	0.040270	0.040270	-16.958609	6.564518	0.367647	171.776497	171.776497	171.776497	1.285308	0.000001	2.830000	1.210551	0.431105	7.146403
17.974565	0.000006	0.040852	0.040852	-16.461951	6.566400	0.367595	171.658403	171.658403	171.658403	1.285141	0.000001	2.830000	1.209931	0.430982	7.248825
18.233480	0.000006	0.041442	0.041442	-15.965300	6.568337	0.367542	171.538624	171.538624	171.538624	1.284969	0.000001	2.830000	1.209293	0.430855	7.352699
18.496125	0.000006	0.042041	0.042041	-15.468655	6.570331	0.367488	171.417136	171.417136	171.417136	1.284792	0.000001	2.830000	1.208637	0.430724	7.458045
18.762553	0.000006	0.042649	0.042649	-14.972017	6.572383	0.367431	171.293915	171.293915	171.293915	1.284611	0.000001	2.830000	1.207963	0.430590	7.564884
19.032818	0.000006	0.043265	0.043265	-14.475387	6.574495	0.367374	171.168937	171.168937	171.168937	1.284424	0.000001	2.830000	1.207269	0.430451	7.673236
19.306977	0.000006	0.043890	0.043890	-13.978764	6.576670	0.367314	171.042178	171.042178	171.042178	1.284231	0.000001	2.830000	1.206556	0.430309	7.783122
19.585085	0.000007	0.044525	0.044525	-13.482148	6.578908	0.367253	170.913612	170.913612	170.913612	1.284033	0.000001	2.830000	1.205823	0.430163	7.894563
19.867199	0.000007	0.045169	0.045169	-12.985540	6.581212	0.367190	170.783214	170.783214	170.783214	1.283830	0.000001	2.830000	1.205068	0.430012	8.007579
20.153377	0.000007	0.045822	0.045822	-12.488940	6.583584	0.367125	170.650960	170.650960	170.650960	1.283621	0.000001	2.830000	1.204293	0.429857	8.122193
20.443677	0.000007	0.046485	0.046485	-11.992348	6.586025	0.367059	170.516822	170.516822	170.516822	1.283405	0.000001	2.830000	1.203495	0.429698	8.238426
20.738158	0.000007	0.047157	0.047157	-11.495764	6.588539	0.366990	170.380776	170.380776	170.380776	1.283184	0.000001	2.830000	1.202675	0.429534	8.356299
21.036882	0.000008	0.047839	0.047839	-10.999189	6.591126	0.366919	170.242794	170.242794	170.242794	1.282956	0.000001	2.830000	1.201832	0.429365	8.475836
21.339908	0.000008	0.048531	0.048531	-10.502623	6.593789	0.366847	170.102850	170.102850	170.102850	1.282722	0.000001	2.830000	1.200965	0.429192	8.597058
21.647300	0.000008	0.049234	0.049234	-10.006065	6.596531	0.366772	169.960916	169.960916	169.960916	1.282481	0.000001	2.830000	1.200074	0.429013	8.719988
21.959119	0.000008	0.049946	0.049946	-9.509517	6.599354	0.366696	169.816965	169.816965	169.816965	1.282233	0.000001	2.830000	1.199158	0.428830	8.844649
22.275430	0.000009	0.050669	0.050669	-9.012979	6.602259	0.366617	169.670969	169.670969	169.670969	1.281978	0.000002	2.830000	1.198215	0.428641	8.971064
22.596297	0.000009	0.051402	0.051402	-8.516450	6.605251	0.366536	169.522900	169.522900	169.522900	1.281716	0.000002	2.830000	1.197247	0.428447	9.099257
22.921786	0.000009	0.052147	0.052147	-8.019931	6.608330	0.366452	169.372730	169.372730	169.372730	1.281446	0.000002	2.830000	1.196251	0.428247	9.229252
23.251963	0.000009	0.052902	0.052902	-7.523422	6.611501	0.366366	169.220428	169.220428	169.220428	1.281169	0.000002	2.830000	1.195227	0.428042	9.361072
23.586897	0.000010	0.053668	0.053668	-7.026923	6.614765	0.366278	169.065967	169.065967	169.065967	1.280883	0.000002	2.830000	1.194175	0.427831	9.494742
23.926655	0.000010	0.054445	0.054445	-6.530436	6.618125	0.366187	168.909317	168.909317	168.909317	1.280590	0.000002	2.830000	1.193093	0.427614	9.630285
24.271307	0.000010	0.055234	0.055234	-6.033959	6.621585	0.366094	168.750446	168.750446	168.750446	1.280288	0.000002	2.830000	1.191980	0.427390	9.767728
24.620924	0.000011	0.056034	0.056034	-5.537493	6.625147	0.365998	168.589326	168.589326	168.589326	1.279978	0.000002	2.830000	1.190837	0.427160	9.907095
24.975577	0.000011	0.056846	0.056846	-5.041039	6.628815	0.365899	168.425925	168.425925	168.425925	1.279659	0.000002	2.830000	1.189662	0.426924	10.048411
25.335338	0.000011	0.057670	0.057670	-4.544597	6.632591	0.365797	168.260213	168.260213	168.260213	1.279330	0.000003	2.830000	1.188454	0.426681	10.191701
25.700282	0.000012	0.058506	0.058506	-4.048167	6.636479	0.365693	168.092157	168.092157	168.092157	1.278993	0.000003	2.830000	1.187212	0.426431	10.336992
26.070482	0.000012	0.059354	0.059354	-3.551749	6.640482	0.365585	167.921726	167.921726	167.921726	1.278646	0.000003	2.830000	1.185936	0.426174	10.484310
26.446016	0.000012	0.060215	0.060215	-3.055344	6.644604	0.365475	167.748887	167.748887	167.748887	1.278289	0.000003	2.830000	1.184625	0.425909	10.633680
26.826958	0.000013	0.061088	0.061088	-2.558952	6.648849	0.365361	167.573609	167.573609	167.573609	1.277922	0.000003	2.830000	1.183277	0.425638	10.785130
27.213388	0.000013	0.061975	0.061975	-2.062573	6.653219	0.365244	167.395857	167.395857	167.395857	1.277544	0.000003	2.830000	1.181892	0.425358	10.938686
27.605384	0.000013	0.062874	0.062874	-1.566208	6.657719	0.365124	167.215599	167.215599	167.215599	1.277156	0.000004	2.830000	1.180468	0.425071	11.094375
28.003026	0.000014	0.063787	0.063787	-1.069856	6.662353	0.365000	167.032801	167.032801	167.032801	1.276757	0.000004	2.830000	1.179005	0.424775	11.252225
28.406397	0.000014	0.064713	0.064713	-0.573519	6.667125	0.364873	166.847429	166.847429	166.847429	1.276347	0.000004	2.830000	1.177502	0.424471	11.412262
28.815578	0.000015	0.065652	0.065652	-0.077196	6.672039	0.364742	166.659447	166.659447	166.659447	1.275925	0.000004	2.830000	1.175958	0.424158	11.574516
29.230652	0.000015	0.066606	0.066606	0.419112	6.677099	0.364608	166.468822	166.468822	166.468822	1.275491	0.000005	2.830000	1.174371	0.423837	11.739013
29.651706	0.000016	0.067573	0.067573	0.915405	6.682311	0.364470	166.275518	166.275518	166.275518	1.275045	0.000005	2.830000	1.172740	0.423506	11.905783
30.078825	0.000016	0.068555	0.068555	1.411682	6.687677	0.364327	166.079498	166.079498	166.079498	1.274586	0.000005	2.830000	1.171065	0.423166	12.074853
30.512097	0.000017	0.069552	0.069552	1.907943	6.693205	0.364181	165.880728	165.880728	165.880728	1.274115	0.000006	2.830000	1.169344	0.422817	12.246252
30.951609	0.000017	0.070563	0.070563	2.404189	6.698897	0.364031	165.679170	165.679170	165.679170	1.273630	0.000006	2.830000	1.167576	0.422458	12.420009
31.397452	0.000018	0.071589	0.071589	2.900418	6.704760	0.363877	165.474788	165.474788	165.474788	1.273132	0.000006	2.830000	1.165759	0.422088	12.596154
31.849718	0.000018	0.072630	0.072630	3.396630	6.710798	0.363718	165.267544	165.267544	165.267544	1.272619	0.000007	2.830000	1.163894	0.421708	12.774715
32.308498	0.000019	0.073687	0.073687	3.892824	6.717018	0.363555	165.057400	165.057400	165.057400	1.272093	0.000007	2.830000	1.161977	0.421318	12.955722
32.773887	0.000019	0.074760	0.074760	4.389002	6.723423	0.363387	164.844319	164.844319	164.844319	1.271551	0.000007	2.830000	1.160009	0.420917	13.139206
33.245979	0.000020	0.075848	0.075848	4.885161	6.730022	0.363214	164.628262	164.628262	164.628262	1.270995	0.000008	2.830000	1.157988	0.420504	13.325195
33.724872	0.000020	0.076953	0.076953	5.381302	6.736819	0.363037	164.409190	164.409190	164.409190	1.270423	0.000008	2.830000	1.155911	0.420080	13.513720
34.210663	0.000021	0.078074	0.078074	5.877425	6.743820	0.362854	164.187063	164.187063	164.187063	1.269835	0.000009	2.830000	1.153779	0.419643	13.704812
34.703452	0.000022	0.079212	0.079212	6.373528	6.751032	0.362667	163.961843	163.961843	163.961843	1.269230	0.000009	2.830000	1.151590	0.419195	13.898500
35.203338	0.000022	0.080366	0.080366	6.869613	6.758462	0.362474	163.733489	163.733489	163.733489	1.268609	0.000010	2.830000	1.149342	0.418734	14.094815
35.710426	0.000023	0.081538	0.081538	7.365677	6.766116	0.362276	163.501961	163.501961	163.501961	1.267970	0.000011	2.830000	1.147034	0.418261	14.293789
36.224818	0.000024	0.082728	0.082728	7.861722	6.774002	0.362072	163.267217	163.267217	163.267217	1.267314	0.000011	2.830000	1.144664	0.417774	14.495451
36.746619	0.000024	0.083935	0.083935	8.357747	6.782126	0.361863	163.029217	163.029217	163.029217	1.266640	0.000012	2.830000	1.142231	0.417273	14.699833
37.275937	0.000025	0.085161	0.085161	8.853750	6.790496	0.361648	162.787920	162.787920	162.787920	1.265947	0.000013	2.830000	1.139734	0.416759	14.906967
37.812880	0.000026	0.086404	0.086404	9.349733	6.799120	0.361427	162.543282	162.543282	162.543282	1.265234	0.000013	2.830000	1.137170	0.416230	15.116882
38.357556	0.000027	0.087667	0.087667	9.845695	6.808007	0.361200	162.295262	162.295262	162.295262	1.264502	0.000014	2.830000	1.134539	0.415687	15.329611
38.910079	0.000027	0.088948	0.088948	10.341635	6.817163	0.360966	162.043816	162.043816	162.043816	1.263750	0.000015	2.830000	1.131839	0.415129	15.545185
39.470560	0.000028	0.090249	0.090249	10.837553	6.826599	0.360726	161.788903	161.788903	161.788903	1.262978	0.000016	2.830000	1.129067	0.414555	15.763636
40.039115	0.000029	0.091570	0.091570	11.333449	6.836322	0.360479	161.530478	161.530478	161.530478	1.262184	0.000017	2.830000	1.126224	0.413965	15.984994
40.615860	0.000030	0.092910	0.092910	11.829322	6.846343	0.360226	161.268498	161.268498	161.268498	1.261368	0.000018	2.830000	1.123305	0.413359	16.209291
41.200912	0.000031	0.094270	0.094270	12.325173	6.856670	0.359966	161.002918	161.002918	161.002918	1.260530	0.000019	2.830000	1.120311	0.412737	16.436559
41.794392	0.000032	0.095652	0.095652	12.821000	6.867313	0.359698	160.733694	160.733694	160.733694	1.259668	0.000020	2.830000	1.117240	0.412097	16.666829
42.396421	0.000033	0.097054	0.097054	13.316804	6.878283	0.359423	160.460782	160.460782	160.460782	1.258784	0.000022	2.830000	1.114089	0.411440	16.900133
43.007121	0.000034	0.098477	0.098477	13.812585	6.889590	0.359141	160.184135	160.184135	160.184135	1.257875	0.000023	2.830000	1.110857	0.410765	17.136502
43.626619	0.000035	0.099922	0.099922	14.308342	6.901246	0.358850	159.903709	159.903709	159.903709	1.256942	0.000024	2.830000	1.107542	0.410071	17.375967
44.255040	0.000036	0.101389	0.101389	14.804075	6.913261	0.358552	159.619457	159.619457	159.619457	1.255983	0.000026	2.830000	1.104142	0.409358	17.618559
44.892513	0.000037	0.102879	0.102879	15.299784	6.925647	0.358246	159.331334	159.331334	159.331334	1.254998	0.000027	2.830000	1.100656	0.408626	17.864310
45.539168	0.000038	0.104391	0.104391	15.795469	6.938416	0.357931	159.039293	159.039293	159.039293	1.253987	0.000029	2.830000	1.097082	0.407874	18.113249
46.195138	0.000040	0.105926	0.105926	16.291129	6.951582	0.357608	158.743287	158.743287	158.743287	1.252948	0.000031	2.830000	1.093417	0.407102	18.365409
46.860558	0.000041	0.107485	0.107485	16.786765	6.965157	0.357276	158.443270	158.443270	158.443270	1.251881	0.000033	2.830000	1.089660	0.406308	18.620819
47.535562	0.000042	0.109068	0.109068	17.282377	6.979154	0.356935	158.139193	158.139193	158.139193	1.250786	0.000035	2.830000	1.085809	0.405493	18.879509
48.220290	0.000043	0.110675	0.110675	17.777964	6.993588	0.356585	157.831011	157.831011	157.831011	1.249662	0.000037	2.830000	1.081863	0.404656	19.141510
48.914880	0.000045	0.112307	0.112307	18.273526	7.008473	0.356226	157.518673	157.518673	157.518673	1.248507	0.000039	2.830000	1.077818	0.403797	19.406850
49.619476	0.000046	0.113964	0.113964	18.769064	7.023825	0.355856	157.202134	157.202134	157.202134	1.247321	0.000042	2.830000	1.073673	0.402914	19.675560
50.334221	0.000048	0.115646	0.115646	19.264578	7.039659	0.355477	156.881344	156.881344	156.881344	1.246104	0.000044	2.830000	1.069427	0.402008	19.947667
51.059262	0.000049	0.117355	0.117355	19.760068	7.055991	0.355088	156.556255	156.556255	156.556255	1.244855	0.000047	2.830000	1.065077	0.401078	20.223200
51.794747	0.000051	0.119091	0.119091	20.255534	7.072838	0.354688	156.226819	156.226819	156.226819	1.243572	0.000050	2.830000	1.060622	0.400122	20.502188
52.540826	0.000052	0.120853	0.120853	20.750977	7.090219	0.354278	155.892986	155.892986	155.892986	1.242256	0.000053	2.830000	1.056059	0.399141	20.784657
53.297652	0.000054	0.122643	0.122643	21.246396	7.108150	0.353856	155.554708	155.554708	155.554708	1.240905	0.000056	2.830000	1.051386	0.398135	21.070633
54.065379	0.000056	0.124461	0.124461	21.741792	7.126651	0.353424	155.211936	155.211936	155.211936	1.239519	0.000060	2.830000	1.046602	0.397101	21.360144
54.844166	0.000058	0.126307	0.126307	22.237167	7.145742	0.352980	154.864619	154.864619	154.864619	1.238096	0.000064	2.830000	1.041704	0.396040	21.653215
55.634170	0.000059	0.128183	0.128183	22.732519	7.165443	0.352524	154.512710	154.512710	154.512710	1.236636	0.000068	2.830000	1.036690	0.394951	21.949869
56.435554	0.000061	0.130088	0.130088	23.227850	7.185775	0.352056	154.156158	154.156158	154.156158	1.235139	0.000072	2.830000	1.031560	0.393834	22.250131
57.248482	0.000063	0.132023	0.132023	23.723161	7.206760	0.351576	153.794914	153.794914	153.794914	1.233602	0.000077	2.830000	1.026309	0.392687	22.554024
58.073119	0.000065	0.133989	0.133989	24.218453	7.228422	0.351084	153.428929	153.428929	153.428929	1.232026	0.000081	2.830000	1.020938	0.391510	22.861570
58.909635	0.000068	0.135986	0.135986	24.713726	7.250785	0.350578	153.058153	153.058153	153.058153	1.230409	0.000087	2.830000	1.015443	0.390303	23.172789
59.758201	0.000070	0.138015	0.138015	25.208982	7.273872	0.350060	152.682536	152.682536	152.682536	1.228751	0.000092	2.830000	1.009824	0.389064	23.487702
60.618990	0.000072	0.140077	0.140077	25.704221	7.297711	0.349528	152.302029	152.302029	152.302029	1.227050	0.000098	2.830000	1.004077	0.387793	23.806327
61.492178	0.000075	0.142171	0.142171	26.199446	7.322328	0.348982	151.916582	151.916582	151.916582	1.225306	0.000104	2.830000	0.998202	0.386489	24.128682
