Freq (hertz)	Ra (norm)	Xa (norm)	Za (norm)	SPL (dB)	Ze (ohms)	Xd (mm) 	WPhase (deg)	UPhase (deg)	CPhase (deg)	Delay (msec)	Efficiency (%)	Ein (volts)	Pin (watts)	Iin (amps)	ZePhase (deg)

10.000000	0.000002	0.015476	0.015476	-39.558016	6.520478	0.368858	175.208829	175.208829	175.208829	1.329671	0.000000	2.830000	1.225217	0.434017	4.039828
10.144045	0.000002	0.015700	0.015700	-39.061299	6.521074	0.368841	175.139878	175.139878	175.139878	1.329618	0.000000	2.830000	1.225017	0.433978	4.097924
10.290166	0.000002	0.015926	0.015926	-38.564587	6.521686	0.368824	175.069937	175.069937	175.069937	1.329564	0.000000	2.830000	1.224811	0.433937	4.156853
10.438391	0.000002	0.016155	0.016155	-38.067880	6.522316	0.368806	174.998992	174.998992	174.998992	1.329508	0.000000	2.830000	1.224599	0.433895	4.216626
10.588751	0.000002	0.016388	0.016388	-37.571179	6.522965	0.368788	174.927028	174.927028	174.927028	1.329451	0.000000	2.830000	1.224381	0.433852	4.277256
10.741277	0.000002	0.016624	0.016624	-37.074484	6.523633	0.368769	174.854030	174.854030	174.854030	1.329392	0.000000	2.830000	1.224157	0.433807	4.338754
10.896000	0.000002	0.016864	0.016864	-36.577794	6.524320	0.368749	174.779984	174.779984	174.779984	1.329331	0.000000	2.830000	1.223926	0.433762	4.401133
11.052951	0.000002	0.017107	0.017107	-36.081110	6.525027	0.368730	174.704875	174.704875	174.704875	1.329269	0.000000	2.830000	1.223688	0.433715	4.464406
11.212164	0.000002	0.017354	0.017354	-35.584433	6.525754	0.368709	174.628688	174.628688	174.628688	1.329205	0.000000	2.830000	1.223444	0.433666	4.528584
11.373670	0.000002	0.017604	0.017604	-35.087761	6.526503	0.368688	174.551407	174.551407	174.551407	1.329139	0.000000	2.830000	1.223193	0.433617	4.593682
11.537502	0.000002	0.017857	0.017857	-34.591096	6.527274	0.368666	174.473017	174.473017	174.473017	1.329071	0.000000	2.830000	1.222935	0.433565	4.659711
11.703695	0.000002	0.018115	0.018115	-34.094438	6.528067	0.368644	174.393502	174.393502	174.393502	1.329001	0.000000	2.830000	1.222669	0.433513	4.726685
11.872281	0.000002	0.018376	0.018376	-33.597786	6.528883	0.368621	174.312845	174.312845	174.312845	1.328929	0.000000	2.830000	1.222395	0.433459	4.794618
12.043295	0.000002	0.018641	0.018641	-33.101141	6.529723	0.368598	174.231032	174.231032	174.231032	1.328855	0.000000	2.830000	1.222114	0.433403	4.863522
12.216773	0.000003	0.018910	0.018910	-32.604504	6.530587	0.368573	174.148044	174.148044	174.148044	1.328779	0.000000	2.830000	1.221824	0.433345	4.933412
12.392750	0.000003	0.019182	0.019182	-32.107874	6.531477	0.368548	174.063866	174.063866	174.063866	1.328700	0.000000	2.830000	1.221526	0.433286	5.004301
12.571262	0.000003	0.019459	0.019459	-31.611251	6.532393	0.368523	173.978481	173.978481	173.978481	1.328620	0.000000	2.830000	1.221220	0.433226	5.076204
12.752345	0.000003	0.019739	0.019739	-31.114637	6.533335	0.368496	173.891871	173.891871	173.891871	1.328537	0.000000	2.830000	1.220905	0.433163	5.149134
12.936037	0.000003	0.020024	0.020024	-30.618030	6.534305	0.368469	173.804019	173.804019	173.804019	1.328452	0.000000	2.830000	1.220581	0.433099	5.223107
13.122374	0.000003	0.020312	0.020312	-30.121432	6.535303	0.368441	173.714908	173.714908	173.714908	1.328364	0.000000	2.830000	1.220247	0.433033	5.298136
13.311396	0.000003	0.020605	0.020605	-29.624842	6.536330	0.368412	173.624519	173.624519	173.624519	1.328273	0.000000	2.830000	1.219904	0.432965	5.374237
13.503140	0.000003	0.020902	0.020902	-29.128261	6.537387	0.368383	173.532834	173.532834	173.532834	1.328181	0.000000	2.830000	1.219551	0.432895	5.451425
13.697647	0.000003	0.021204	0.021204	-28.631690	6.538475	0.368352	173.439835	173.439835	173.439835	1.328085	0.000000	2.830000	1.219188	0.432823	5.529715
13.894955	0.000003	0.021509	0.021509	-28.135127	6.539595	0.368321	173.345503	173.345503	173.345503	1.327987	0.000000	2.830000	1.218814	0.432749	5.609123
14.095105	0.000003	0.021820	0.021820	-27.638574	6.540747	0.368289	173.249820	173.249820	173.249820	1.327885	0.000000	2.830000	1.218430	0.432672	5.689663
14.298139	0.000004	0.022134	0.022134	-27.142031	6.541933	0.368255	173.152766	173.152766	173.152766	1.327781	0.000000	2.830000	1.218035	0.432594	5.771352
14.504097	0.000004	0.022453	0.022453	-26.645497	6.543154	0.368221	173.054322	173.054322	173.054322	1.327674	0.000000	2.830000	1.217628	0.432513	5.854207
14.713021	0.000004	0.022777	0.022777	-26.148975	6.544410	0.368186	172.954468	172.954468	172.954468	1.327564	0.000000	2.830000	1.217210	0.432430	5.938242
14.924955	0.000004	0.023105	0.023105	-25.652463	6.545704	0.368150	172.853184	172.853184	172.853184	1.327451	0.000000	2.830000	1.216780	0.432345	6.023475
15.139942	0.000004	0.023439	0.023439	-25.155961	6.547034	0.368113	172.750450	172.750450	172.750450	1.327334	0.000000	2.830000	1.216338	0.432257	6.109923
15.358026	0.000004	0.023777	0.023777	-24.659472	6.548404	0.368074	172.646245	172.646245	172.646245	1.327214	0.000000	2.830000	1.215883	0.432166	6.197602
15.579251	0.000004	0.024120	0.024120	-24.162993	6.549814	0.368035	172.540549	172.540549	172.540549	1.327091	0.000000	2.830000	1.215415	0.432073	6.286530
15.803663	0.000004	0.024467	0.024467	-23.666527	6.551265	0.367995	172.433341	172.433341	172.433341	1.326964	0.000000	2.830000	1.214933	0.431978	6.376723
16.031307	0.000004	0.024820	0.024820	-23.170073	6.552759	0.367953	172.324599	172.324599	172.324599	1.326833	0.000000	2.830000	1.214438	0.431879	6.468200
16.262231	0.000005	0.025178	0.025178	-22.673632	6.554296	0.367910	172.214302	172.214302	172.214302	1.326699	0.000000	2.830000	1.213929	0.431778	6.560977
16.496481	0.000005	0.025541	0.025541	-22.177204	6.555878	0.367866	172.102427	172.102427	172.102427	1.326561	0.000000	2.830000	1.213405	0.431674	6.655074
16.734105	0.000005	0.025910	0.025910	-21.680789	6.557506	0.367821	171.988953	171.988953	171.988953	1.326418	0.000000	2.830000	1.212866	0.431566	6.750509
16.975152	0.000005	0.026284	0.026284	-21.184388	6.559182	0.367774	171.873857	171.873857	171.873857	1.326272	0.000001	2.830000	1.212312	0.431456	6.847299
17.219671	0.000005	0.026663	0.026663	-20.688000	6.560908	0.367726	171.757116	171.757116	171.757116	1.326122	0.000001	2.830000	1.211742	0.431343	6.945464
17.467712	0.000005	0.027047	0.027047	-20.191628	6.562683	0.367677	171.638707	171.638707	171.638707	1.325967	0.000001	2.830000	1.211156	0.431226	7.045023
17.719326	0.000005	0.027438	0.027438	-19.695270	6.564511	0.367626	171.518607	171.518607	171.518607	1.325808	0.000001	2.830000	1.210553	0.431106	7.145994
17.974565	0.000006	0.027833	0.027833	-19.198928	6.566392	0.367574	171.396791	171.396791	171.396791	1.325644	0.000001	2.830000	1.209933	0.430982	7.248397
18.233480	0.000006	0.028235	0.028235	-18.702602	6.568329	0.367520	171.273236	171.273236	171.273236	1.325476	0.000001	2.830000	1.209296	0.430855	7.352253
18.496125	0.000006	0.028642	0.028642	-18.206291	6.570322	0.367465	171.147918	171.147918	171.147918	1.325302	0.000001	2.830000	1.208640	0.430725	7.457580
18.762553	0.000006	0.029056	0.029056	-17.709998	6.572374	0.367408	171.020811	171.020811	171.020811	1.325124	0.000001	2.830000	1.207966	0.430590	7.564399
19.032818	0.000006	0.029475	0.029475	-17.213722	6.574485	0.367349	170.891891	170.891891	170.891891	1.324941	0.000001	2.830000	1.207272	0.430452	7.672730
19.306977	0.000006	0.029900	0.029900	-16.717463	6.576659	0.367289	170.761133	170.761133	170.761133	1.324752	0.000001	2.830000	1.206559	0.430310	7.782594
19.585085	0.000007	0.030332	0.030332	-16.221222	6.578897	0.367227	170.628510	170.628510	170.628510	1.324558	0.000001	2.830000	1.205826	0.430163	7.894011
19.867199	0.000007	0.030770	0.030770	-15.725000	6.581200	0.367163	170.493996	170.493996	170.493996	1.324359	0.000001	2.830000	1.205072	0.430013	8.007004
20.153377	0.000007	0.031214	0.031214	-15.228798	6.583571	0.367098	170.357566	170.357566	170.357566	1.324153	0.000001	2.830000	1.204297	0.429858	8.121592
20.443677	0.000007	0.031664	0.031664	-14.732615	6.586012	0.367030	170.219193	170.219193	170.219193	1.323942	0.000001	2.830000	1.203500	0.429699	8.237799
20.738158	0.000007	0.032121	0.032121	-14.236452	6.588525	0.366961	170.078849	170.078849	170.078849	1.323725	0.000001	2.830000	1.202680	0.429535	8.355645
21.036882	0.000008	0.032585	0.032585	-13.740310	6.591111	0.366890	169.936507	169.936507	169.936507	1.323502	0.000001	2.830000	1.201837	0.429366	8.475153
21.339908	0.000008	0.033055	0.033055	-13.244190	6.593773	0.366816	169.792139	169.792139	169.792139	1.323272	0.000001	2.830000	1.200971	0.429193	8.596346
21.647300	0.000008	0.033533	0.033533	-12.748091	6.596514	0.366741	169.645718	169.645718	169.645718	1.323036	0.000001	2.830000	1.200079	0.429014	8.719245
21.959119	0.000008	0.034017	0.034017	-12.252015	6.599336	0.366663	169.497214	169.497214	169.497214	1.322793	0.000001	2.830000	1.199163	0.428831	8.843874
22.275430	0.000009	0.034508	0.034508	-11.755963	6.602240	0.366583	169.346599	169.346599	169.346599	1.322543	0.000002	2.830000	1.198222	0.428642	8.970255
22.596297	0.000009	0.035006	0.035006	-11.259934	6.605231	0.366501	169.193844	169.193844	169.193844	1.322286	0.000002	2.830000	1.197253	0.428448	9.098413
22.921786	0.000009	0.035512	0.035512	-10.763930	6.608309	0.366417	169.038919	169.038919	169.038919	1.322022	0.000002	2.830000	1.196258	0.428249	9.228371
23.251963	0.000009	0.036025	0.036025	-10.267951	6.611478	0.366330	168.881795	168.881795	168.881795	1.321750	0.000002	2.830000	1.195234	0.428043	9.360153
23.586897	0.000010	0.036545	0.036545	-9.771998	6.614741	0.366241	168.722440	168.722440	168.722440	1.321470	0.000002	2.830000	1.194182	0.427832	9.493783
23.926655	0.000010	0.037073	0.037073	-9.276071	6.618100	0.366149	168.560825	168.560825	168.560825	1.321183	0.000002	2.830000	1.193101	0.427615	9.629285
24.271307	0.000010	0.037608	0.037608	-8.780172	6.621559	0.366054	168.396918	168.396918	168.396918	1.320887	0.000002	2.830000	1.191989	0.427392	9.766685
24.620924	0.000011	0.038152	0.038152	-8.284302	6.625119	0.365957	168.230687	168.230687	168.230687	1.320583	0.000002	2.830000	1.190846	0.427162	9.906006
24.975577	0.000011	0.038703	0.038703	-7.788460	6.628785	0.365857	168.062102	168.062102	168.062102	1.320270	0.000002	2.830000	1.189671	0.426926	10.047275
25.335338	0.000011	0.039262	0.039262	-7.292647	6.632560	0.365754	167.891129	167.891129	167.891129	1.319949	0.000003	2.830000	1.188464	0.426683	10.190516
25.700282	0.000012	0.039829	0.039829	-6.796866	6.636446	0.365649	167.717736	167.717736	167.717736	1.319618	0.000003	2.830000	1.187223	0.426433	10.335756
26.070482	0.000012	0.040405	0.040405	-6.301115	6.640447	0.365540	167.541890	167.541890	167.541890	1.319278	0.000003	2.830000	1.185948	0.426176	10.483020
26.446016	0.000012	0.040989	0.040989	-5.805397	6.644567	0.365428	167.363558	167.363558	167.363558	1.318929	0.000003	2.830000	1.184637	0.425912	10.632334
26.826958	0.000013	0.041581	0.041582	-5.309712	6.648809	0.365313	167.182706	167.182706	167.182706	1.318569	0.000003	2.830000	1.183290	0.425640	10.783726
27.213388	0.000013	0.042183	0.042183	-4.814061	6.653177	0.365195	166.999299	166.999299	166.999299	1.318200	0.000003	2.830000	1.181905	0.425361	10.937221
27.605384	0.000013	0.042792	0.042792	-4.318445	6.657674	0.365073	166.813303	166.813303	166.813303	1.317820	0.000004	2.830000	1.180482	0.425073	11.092847
28.003026	0.000014	0.043411	0.043411	-3.822865	6.662306	0.364948	166.624683	166.624683	166.624683	1.317429	0.000004	2.830000	1.179020	0.424778	11.250631
28.406397	0.000014	0.044039	0.044039	-3.327321	6.667075	0.364820	166.433404	166.433404	166.433404	1.317027	0.000004	2.830000	1.177518	0.424474	11.410600
28.815578	0.000015	0.044676	0.044676	-2.831815	6.671986	0.364688	166.239430	166.239430	166.239430	1.316614	0.000004	2.830000	1.175974	0.424162	11.572782
29.230652	0.000015	0.045322	0.045322	-2.336348	6.677043	0.364552	166.042724	166.042724	166.042724	1.316190	0.000005	2.830000	1.174388	0.423840	11.737204
29.651706	0.000015	0.045978	0.045978	-1.840921	6.682251	0.364412	165.843249	165.843249	165.843249	1.315753	0.000005	2.830000	1.172759	0.423510	11.903896
30.078825	0.000016	0.046643	0.046643	-1.345535	6.687614	0.364268	165.640970	165.640970	165.640970	1.315305	0.000005	2.830000	1.171085	0.423170	12.072885
30.512097	0.000016	0.047318	0.047318	-0.850191	6.693138	0.364120	165.435848	165.435848	165.435848	1.314843	0.000006	2.830000	1.169365	0.422821	12.244199
30.951609	0.000017	0.048003	0.048003	-0.354890	6.698826	0.363968	165.227845	165.227845	165.227845	1.314369	0.000006	2.830000	1.167598	0.422462	12.417868
31.397452	0.000017	0.048697	0.048697	0.140367	6.704685	0.363812	165.016923	165.016923	165.016923	1.313882	0.000006	2.830000	1.165783	0.422093	12.593921
31.849718	0.000018	0.049402	0.049402	0.635578	6.710719	0.363652	164.803043	164.803043	164.803043	1.313380	0.000007	2.830000	1.163918	0.421713	12.772386
32.308498	0.000018	0.050118	0.050118	1.130742	6.716933	0.363486	164.586166	164.586166	164.586166	1.312865	0.000007	2.830000	1.162003	0.421323	12.953294
32.773887	0.000019	0.050843	0.050843	1.625859	6.723334	0.363317	164.366253	164.366253	164.366253	1.312336	0.000007	2.830000	1.160036	0.420922	13.136673
33.245979	0.000020	0.051580	0.051580	2.120927	6.729927	0.363142	164.143264	164.143264	164.143264	1.311792	0.000008	2.830000	1.158016	0.420510	13.322554
33.724872	0.000020	0.052327	0.052327	2.615944	6.736718	0.362963	163.917157	163.917157	163.917157	1.311233	0.000008	2.830000	1.155942	0.420086	13.510966
34.210663	0.000021	0.053085	0.053085	3.110910	6.743714	0.362778	163.687892	163.687892	163.687892	1.310658	0.000009	2.830000	1.153812	0.419650	13.701939
34.703452	0.000021	0.053854	0.053854	3.605822	6.750919	0.362589	163.455429	163.455429	163.455429	1.310067	0.000009	2.830000	1.151624	0.419202	13.895504
35.203338	0.000022	0.054634	0.054634	4.100680	6.758342	0.362394	163.219725	163.219725	163.219725	1.309460	0.000010	2.830000	1.149378	0.418742	14.091692
35.710426	0.000023	0.055426	0.055426	4.595482	6.765989	0.362194	162.980737	162.980737	162.980737	1.308836	0.000011	2.830000	1.147072	0.418268	14.290532
36.224818	0.000023	0.056230	0.056230	5.090227	6.773867	0.361988	162.738425	162.738425	162.738425	1.308195	0.000011	2.830000	1.144704	0.417782	14.492055
36.746619	0.000024	0.057045	0.057045	5.584913	6.781983	0.361776	162.492744	162.492744	162.492744	1.307537	0.000012	2.830000	1.142274	0.417282	14.696293
37.275937	0.000025	0.057872	0.057872	6.079539	6.790345	0.361559	162.243652	162.243652	162.243652	1.306860	0.000013	2.830000	1.139779	0.416768	14.903275
37.812880	0.000025	0.058712	0.058712	6.574103	6.798960	0.361335	161.991104	161.991104	161.991104	1.306164	0.000013	2.830000	1.137218	0.416240	15.113033
38.357556	0.000026	0.059563	0.059563	7.068604	6.807837	0.361106	161.735056	161.735056	161.735056	1.305450	0.000014	2.830000	1.134589	0.415697	15.325599
38.910079	0.000027	0.060428	0.060428	7.563040	6.816984	0.360870	161.475464	161.475464	161.475464	1.304716	0.000015	2.830000	1.131892	0.415140	15.541002
39.470560	0.000028	0.061305	0.061305	8.057410	6.826408	0.360627	161.212283	161.212283	161.212283	1.303962	0.000016	2.830000	1.129123	0.414566	15.759275
40.039115	0.000029	0.062195	0.062195	8.551711	6.836120	0.360378	160.945468	160.945468	160.945468	1.303187	0.000017	2.830000	1.126282	0.413978	15.980448
40.615860	0.000030	0.063098	0.063098	9.045942	6.846128	0.360122	160.674972	160.674972	160.674972	1.302391	0.000018	2.830000	1.123368	0.413372	16.204553
41.200912	0.000030	0.064014	0.064014	9.540102	6.856443	0.359859	160.400750	160.400750	160.400750	1.301574	0.000019	2.830000	1.120377	0.412750	16.431620
41.794392	0.000031	0.064944	0.064944	10.034189	6.867072	0.359588	160.122755	160.122755	160.122755	1.300734	0.000020	2.830000	1.117309	0.412112	16.661681
42.396421	0.000032	0.065888	0.065888	10.528200	6.878028	0.359310	159.840940	159.840940	159.840940	1.299872	0.000021	2.830000	1.114162	0.411455	16.894768
43.007121	0.000033	0.066846	0.066846	11.022135	6.889320	0.359025	159.555257	159.555257	159.555257	1.298986	0.000023	2.830000	1.110934	0.410781	17.130910
43.626619	0.000034	0.067818	0.067818	11.515991	6.900959	0.358732	159.265660	159.265660	159.265660	1.298076	0.000024	2.830000	1.107623	0.410088	17.370139
44.255040	0.000035	0.068804	0.068804	12.009766	6.912956	0.358430	158.972099	158.972099	158.972099	1.297142	0.000025	2.830000	1.104228	0.409376	17.612486
44.892513	0.000036	0.069805	0.069805	12.503459	6.925324	0.358121	158.674528	158.674528	158.674528	1.296183	0.000027	2.830000	1.100747	0.408645	17.857981
45.539168	0.000038	0.070820	0.070820	12.997067	6.938074	0.357803	158.372896	158.372896	158.372896	1.295198	0.000029	2.830000	1.097177	0.407894	18.106655
46.195138	0.000039	0.071851	0.071851	13.490589	6.951219	0.357477	158.067155	158.067155	158.067155	1.294187	0.000030	2.830000	1.093518	0.407123	18.358537
46.860558	0.000040	0.072897	0.072897	13.984022	6.964772	0.357141	157.757255	157.757255	157.757255	1.293149	0.000032	2.830000	1.089766	0.406331	18.613659
47.535562	0.000041	0.073959	0.073959	14.477365	6.978746	0.356797	157.443147	157.443147	157.443147	1.292083	0.000034	2.830000	1.085921	0.405517	18.872050
48.220290	0.000042	0.075036	0.075036	14.970616	6.993155	0.356443	157.124781	157.124781	157.124781	1.290989	0.000036	2.830000	1.081980	0.404681	19.133739
48.914880	0.000044	0.076130	0.076130	15.463772	7.008014	0.356080	156.802105	156.802105	156.802105	1.289866	0.000039	2.830000	1.077942	0.403823	19.398755
49.619476	0.000045	0.077240	0.077240	15.956831	7.023338	0.355707	156.475071	156.475071	156.475071	1.288714	0.000041	2.830000	1.073804	0.402942	19.667127
50.334221	0.000046	0.078366	0.078366	16.449791	7.039142	0.355324	156.143626	156.143626	156.143626	1.287531	0.000044	2.830000	1.069565	0.402038	19.938884
51.059262	0.000048	0.079510	0.079510	16.942651	7.055442	0.354931	155.807720	155.807720	155.807720	1.286317	0.000046	2.830000	1.065223	0.401109	20.214052
51.794747	0.000049	0.080670	0.080670	17.435407	7.072256	0.354527	155.467300	155.467300	155.467300	1.285071	0.000049	2.830000	1.060775	0.400155	20.492660
52.540826	0.000051	0.081848	0.081848	17.928058	7.089601	0.354113	155.122316	155.122316	155.122316	1.283793	0.000052	2.830000	1.056220	0.399176	20.774735
53.297652	0.000053	0.083043	0.083043	18.420601	7.107494	0.353687	154.772716	154.772716	154.772716	1.282482	0.000055	2.830000	1.051556	0.398171	21.060301
54.065379	0.000054	0.084257	0.084257	18.913035	7.125955	0.353251	154.418446	154.418446	154.418446	1.281137	0.000059	2.830000	1.046781	0.397140	21.349386
54.844166	0.000056	0.085489	0.085489	19.405356	7.145003	0.352803	154.059456	154.059456	154.059456	1.279757	0.000063	2.830000	1.041892	0.396081	21.642013
55.634170	0.000058	0.086739	0.086739	19.897563	7.164658	0.352342	153.695692	153.695692	153.695692	1.278341	0.000067	2.830000	1.036889	0.394994	21.938207
56.435554	0.000059	0.088008	0.088008	20.389654	7.184942	0.351870	153.327102	153.327102	153.327102	1.276889	0.000071	2.830000	1.031768	0.393879	22.237991
57.248482	0.000061	0.089296	0.089296	20.881625	7.205877	0.351386	152.953633	152.953633	152.953633	1.275401	0.000075	2.830000	1.026529	0.392735	22.541387
58.073119	0.000063	0.090604	0.090604	21.373476	7.227484	0.350889	152.575231	152.575231	152.575231	1.273874	0.000080	2.830000	1.021169	0.391561	22.848416
58.909635	0.000065	0.091931	0.091931	21.865203	7.249788	0.350379	152.191845	152.191845	152.191845	1.272309	0.000085	2.830000	1.015687	0.390356	23.159099
59.758201	0.000067	0.093279	0.093279	22.356804	7.272814	0.349855	151.803420	151.803420	151.803420	1.270704	0.000090	2.830000	1.010080	0.389120	23.473456
60.618990	0.000070	0.094647	0.094647	22.848277	7.296588	0.349319	151.409903	151.409903	151.409903	1.269059	0.000096	2.830000	1.004346	0.387853	23.791503
61.492178	0.000072	0.096036	0.096036	23.339620	7.321135	0.348768	151.011242	151.011242	151.011242	1.267373	0.000102	2.830000	0.998485	0.386552	24.113257
