Freq (hertz)	Ra (norm)	Xa (norm)	Za (norm)	SPL (dB)	Ze (ohms)	Xd (mm) 	WPhase (deg)	UPhase (deg)	CPhase (deg)	Delay (msec)	Efficiency (%)	Ein (volts)	Pin (watts)	Iin (amps)	ZePhase (deg)

10.000000	0.000277	0.019982	0.019984	71.599311	4.650635	2.720778	131.702438	131.702438	131.702438	8.072793	0.007158	2.830000	1.224075	0.608519	44.699971
10.144045	0.000285	0.020270	0.020272	71.779194	4.688634	2.699389	131.287046	131.287046	131.287046	7.948817	0.007570	2.830000	1.206531	0.603587	45.062332
10.290166	0.000293	0.020562	0.020564	71.958197	4.727456	2.677898	130.872181	130.872181	130.872181	7.825229	0.008004	2.830000	1.189043	0.598631	45.423348
10.438391	0.000302	0.020858	0.020860	72.136325	4.767114	2.656309	130.457923	130.457923	130.457923	7.702080	0.008463	2.830000	1.171618	0.593651	45.782925
10.588751	0.000311	0.021158	0.021160	72.313579	4.807625	2.634630	130.044352	130.044352	130.044352	7.579416	0.008948	2.830000	1.154262	0.588648	46.140970
10.741277	0.000320	0.021463	0.021465	72.489964	4.849003	2.612866	129.631544	129.631544	129.631544	7.457285	0.009461	2.830000	1.136982	0.583625	46.497391
10.896000	0.000329	0.021772	0.021774	72.665484	4.891263	2.591024	129.219576	129.219576	129.219576	7.335732	0.010002	2.830000	1.119784	0.578583	46.852095
11.052951	0.000339	0.022085	0.022088	72.840142	4.934422	2.569110	128.808524	128.808524	128.808524	7.214803	0.010575	2.830000	1.102675	0.573522	47.204991
11.212164	0.000348	0.022403	0.022406	73.013943	4.978494	2.547130	128.398464	128.398464	128.398464	7.094543	0.011179	2.830000	1.085662	0.568445	47.555989
11.373670	0.000358	0.022726	0.022729	73.186892	5.023496	2.525090	127.989468	127.989468	127.989468	6.974994	0.011817	2.830000	1.068750	0.563353	47.904999
11.537502	0.000369	0.023053	0.023056	73.358994	5.069444	2.502997	127.581610	127.581610	127.581610	6.856199	0.012491	2.830000	1.051945	0.558247	48.251931
11.703695	0.000380	0.023385	0.023388	73.530255	5.116355	2.480858	127.174960	127.174960	127.174960	6.738198	0.013203	2.830000	1.035254	0.553128	48.596698
11.872281	0.000391	0.023722	0.023725	73.700680	5.164245	2.458677	126.769589	126.769589	126.769589	6.621032	0.013955	2.830000	1.018681	0.547999	48.939212
12.043295	0.000402	0.024063	0.024067	73.870276	5.213133	2.436463	126.365566	126.365566	126.365566	6.504739	0.014749	2.830000	1.002233	0.542860	49.279386
12.216773	0.000414	0.024410	0.024413	74.039048	5.263035	2.414220	125.962956	125.962956	125.962956	6.389357	0.015587	2.830000	0.985915	0.537713	49.617135
12.392750	0.000426	0.024761	0.024765	74.207003	5.313969	2.391956	125.561827	125.561827	125.561827	6.274920	0.016472	2.830000	0.969731	0.532559	49.952376
12.571262	0.000438	0.025118	0.025121	74.374148	5.365953	2.369676	125.162243	125.162243	125.162243	6.161465	0.017406	2.830000	0.953687	0.527399	50.285023
12.752345	0.000451	0.025479	0.025483	74.540489	5.419006	2.347386	124.764266	124.764266	124.764266	6.049024	0.018392	2.830000	0.937787	0.522236	50.614996
12.936037	0.000464	0.025846	0.025850	74.706035	5.473146	2.325093	124.367956	124.367956	124.367956	5.937629	0.019433	2.830000	0.922036	0.517070	50.942214
13.122374	0.000477	0.026218	0.026223	74.870792	5.528393	2.302803	123.973375	123.973375	123.973375	5.827311	0.020532	2.830000	0.906439	0.511903	51.266595
13.311396	0.000491	0.026596	0.026600	75.034768	5.584766	2.280522	123.580579	123.580579	123.580579	5.718097	0.021692	2.830000	0.890998	0.506736	51.588062
13.503140	0.000505	0.026979	0.026983	75.197972	5.642285	2.258256	123.189624	123.189624	123.189624	5.610017	0.022915	2.830000	0.875720	0.501570	51.906537
13.697647	0.000520	0.027367	0.027372	75.360410	5.700970	2.236010	122.800566	122.800566	122.800566	5.503095	0.024206	2.830000	0.860606	0.496407	52.221943
13.894955	0.000535	0.027761	0.027766	75.522092	5.760842	2.213791	122.413455	122.413455	122.413455	5.397357	0.025569	2.830000	0.845660	0.491248	52.534205
14.095105	0.000551	0.028161	0.028166	75.683025	5.821921	2.191604	122.028344	122.028344	122.028344	5.292825	0.027006	2.830000	0.830887	0.486094	52.843249
14.298139	0.000567	0.028566	0.028572	75.843219	5.884230	2.169454	121.645280	121.645280	121.645280	5.189521	0.028522	2.830000	0.816288	0.480946	53.149002
14.504097	0.000583	0.028977	0.028983	76.002681	5.947791	2.147348	121.264312	121.264312	121.264312	5.087464	0.030120	2.830000	0.801867	0.475807	53.451393
14.713021	0.000600	0.029394	0.029400	76.161422	6.012625	2.125291	120.885485	120.885485	120.885485	4.986673	0.031807	2.830000	0.787626	0.470676	53.750350
14.924955	0.000617	0.029817	0.029824	76.319448	6.078756	2.103287	120.508841	120.508841	120.508841	4.887166	0.033585	2.830000	0.773568	0.465556	54.045805
15.139942	0.000635	0.030247	0.030253	76.476771	6.146208	2.081343	120.134423	120.134423	120.134423	4.788958	0.035459	2.830000	0.759695	0.460447	54.337690
15.358026	0.000654	0.030682	0.030689	76.633399	6.215003	2.059463	119.762270	119.762270	119.762270	4.692062	0.037436	2.830000	0.746009	0.455350	54.625936
15.579251	0.000673	0.031124	0.031131	76.789340	6.285167	2.037652	119.392420	119.392420	119.392420	4.596492	0.039520	2.830000	0.732512	0.450266	54.910479
15.803663	0.000692	0.031572	0.031579	76.944605	6.356726	2.015916	119.024909	119.024909	119.024909	4.502259	0.041716	2.830000	0.719205	0.445198	55.191253
16.031307	0.000712	0.032026	0.032034	77.099203	6.429703	1.994258	118.659771	118.659771	118.659771	4.409372	0.044031	2.830000	0.706091	0.440145	55.468194
16.262231	0.000733	0.032487	0.032495	77.253143	6.504126	1.972684	118.297040	118.297040	118.297040	4.317841	0.046470	2.830000	0.693169	0.435108	55.741240
16.496481	0.000754	0.032955	0.032963	77.406435	6.580022	1.951198	117.936744	117.936744	117.936744	4.227672	0.049040	2.830000	0.680442	0.430090	56.010328
16.734105	0.000776	0.033429	0.033438	77.559089	6.657418	1.929804	117.578913	117.578913	117.578913	4.138871	0.051747	2.830000	0.667910	0.425090	56.275398
16.975152	0.000798	0.033910	0.033920	77.711113	6.736343	1.908507	117.223573	117.223573	117.223573	4.051442	0.054599	2.830000	0.655573	0.420109	56.536389
17.219671	0.000822	0.034398	0.034408	77.862518	6.816825	1.887310	116.870751	116.870751	116.870751	3.965390	0.057603	2.830000	0.643433	0.415149	56.793241
17.467712	0.000845	0.034893	0.034903	78.013314	6.898895	1.866218	116.520468	116.520468	116.520468	3.880716	0.060766	2.830000	0.631489	0.410211	57.045897
17.719326	0.000870	0.035395	0.035406	78.163509	6.982582	1.845235	116.172746	116.172746	116.172746	3.797421	0.064096	2.830000	0.619742	0.405294	57.294297
17.974565	0.000895	0.035905	0.035916	78.313114	7.067919	1.824363	115.827606	115.827606	115.827606	3.715505	0.067603	2.830000	0.608192	0.400401	57.538385
18.233480	0.000921	0.036421	0.036433	78.462138	7.154936	1.803607	115.485064	115.485064	115.485064	3.634966	0.071294	2.830000	0.596839	0.395531	57.778104
18.496125	0.000948	0.036946	0.036958	78.610590	7.243668	1.782971	115.145139	115.145139	115.145139	3.555803	0.075178	2.830000	0.585681	0.390686	58.013398
18.762553	0.000975	0.037477	0.037490	78.758481	7.334148	1.762457	114.807843	114.807843	114.807843	3.478011	0.079266	2.830000	0.574720	0.385866	58.244209
19.032818	0.001004	0.038016	0.038030	78.905820	7.426411	1.742068	114.473191	114.473191	114.473191	3.401587	0.083567	2.830000	0.563954	0.381072	58.470484
19.306977	0.001033	0.038563	0.038577	79.052617	7.520493	1.721808	114.141194	114.141194	114.141194	3.326525	0.088091	2.830000	0.553383	0.376305	58.692166
19.585085	0.001063	0.039118	0.039133	79.198880	7.616431	1.701679	113.811861	113.811861	113.811861	3.252818	0.092849	2.830000	0.543005	0.371565	58.909200
19.867199	0.001094	0.039681	0.039696	79.344619	7.714262	1.681684	113.485201	113.485201	113.485201	3.180460	0.097853	2.830000	0.532821	0.366853	59.121531
20.153377	0.001125	0.040252	0.040268	79.489845	7.814026	1.661826	113.161221	113.161221	113.161221	3.109443	0.103115	2.830000	0.522828	0.362169	59.329103
20.443677	0.001158	0.040831	0.040848	79.634565	7.915763	1.642108	112.839925	112.839925	112.839925	3.039758	0.108646	2.830000	0.513025	0.357514	59.531861
20.738158	0.001192	0.041419	0.041436	79.778789	8.019515	1.622531	112.521319	112.521319	112.521319	2.971395	0.114459	2.830000	0.503412	0.352889	59.729750
21.036882	0.001226	0.042014	0.042032	79.922527	8.125323	1.603098	112.205404	112.205404	112.205404	2.904345	0.120568	2.830000	0.493987	0.348294	59.922713
21.339908	0.001262	0.042619	0.042637	80.065787	8.233232	1.583810	111.892182	111.892182	111.892182	2.838596	0.126986	2.830000	0.484748	0.343729	60.110694
21.647300	0.001298	0.043232	0.043251	80.208579	8.343288	1.564671	111.581651	111.581651	111.581651	2.774138	0.133729	2.830000	0.475694	0.339195	60.293636
21.959119	0.001336	0.043854	0.043874	80.350911	8.455536	1.545682	111.273811	111.273811	111.273811	2.710957	0.140810	2.830000	0.466823	0.334692	60.471481
22.275430	0.001375	0.044484	0.044506	80.492792	8.570025	1.526844	110.968659	110.968659	110.968659	2.649041	0.148245	2.830000	0.458134	0.330221	60.644169
22.596297	0.001415	0.045124	0.045146	80.634231	8.686806	1.508159	110.666191	110.666191	110.666191	2.588378	0.156051	2.830000	0.449624	0.325781	60.811643
22.921786	0.001456	0.045773	0.045796	80.775236	8.805928	1.489628	110.366400	110.366400	110.366400	2.528954	0.164245	2.830000	0.441292	0.321374	60.973840
23.251963	0.001498	0.046432	0.046456	80.915817	8.927445	1.471254	110.069282	110.069282	110.069282	2.470754	0.172843	2.830000	0.433137	0.317000	61.130700
23.586897	0.001541	0.047099	0.047124	81.055980	9.051412	1.453037	109.774828	109.774828	109.774828	2.413764	0.181863	2.830000	0.425155	0.312658	61.282158
23.926655	0.001586	0.047777	0.047803	81.195736	9.177885	1.434978	109.483029	109.483029	109.483029	2.357969	0.191326	2.830000	0.417345	0.308350	61.428149
24.271307	0.001632	0.048464	0.048491	81.335091	9.306923	1.417079	109.193877	109.193877	109.193877	2.303354	0.201249	2.830000	0.409704	0.304075	61.568607
24.620924	0.001679	0.049160	0.049189	81.474054	9.438586	1.399340	108.907359	108.907359	108.907359	2.249904	0.211653	2.830000	0.402232	0.299833	61.703464
24.975577	0.001728	0.049867	0.049897	81.612632	9.572936	1.381762	108.623464	108.623464	108.623464	2.197603	0.222558	2.830000	0.394925	0.295625	61.832648
25.335338	0.001778	0.050584	0.050615	81.750835	9.710039	1.364346	108.342180	108.342180	108.342180	2.146435	0.233987	2.830000	0.387781	0.291451	61.956088
25.700282	0.001830	0.051311	0.051344	81.888668	9.849960	1.347093	108.063493	108.063493	108.063493	2.096383	0.245961	2.830000	0.380799	0.287311	62.073707
26.070482	0.001883	0.052049	0.052083	82.026141	9.992769	1.330004	107.787389	107.787389	107.787389	2.047431	0.258503	2.830000	0.373975	0.283205	62.185428
26.446016	0.001937	0.052797	0.052833	82.163259	10.138538	1.313077	107.513851	107.513851	107.513851	1.999563	0.271638	2.830000	0.367308	0.279133	62.291170
26.826958	0.001993	0.053556	0.053593	82.300032	10.287340	1.296315	107.242864	107.242864	107.242864	1.952761	0.285389	2.830000	0.360795	0.275095	62.390850
27.213388	0.002051	0.054326	0.054365	82.436465	10.439252	1.279718	106.974411	106.974411	106.974411	1.907010	0.299781	2.830000	0.354435	0.271092	62.484380
27.605384	0.002111	0.055107	0.055147	82.572566	10.594355	1.263285	106.708474	106.708474	106.708474	1.862291	0.314842	2.830000	0.348224	0.267123	62.571669
28.003026	0.002172	0.055899	0.055941	82.708342	10.752729	1.247016	106.445034	106.445034	106.445034	1.818588	0.330597	2.830000	0.342161	0.263189	62.652625
28.406397	0.002235	0.056702	0.056746	82.843799	10.914461	1.230912	106.184073	106.184073	106.184073	1.775884	0.347074	2.830000	0.336243	0.259289	62.727147
28.815578	0.002300	0.057517	0.057563	82.978945	11.079640	1.214973	105.925571	105.925571	105.925571	1.734162	0.364301	2.830000	0.330467	0.255423	62.795134
29.230652	0.002366	0.058343	0.058391	83.113786	11.248356	1.199199	105.669507	105.669507	105.669507	1.693404	0.382308	2.830000	0.324832	0.251592	62.856479
29.651706	0.002435	0.059181	0.059232	83.248327	11.420705	1.183589	105.415860	105.415860	105.415860	1.653594	0.401125	2.830000	0.319335	0.247796	62.911069
30.078825	0.002505	0.060032	0.060084	83.382577	11.596786	1.168143	105.164609	105.164609	105.164609	1.614715	0.420782	2.830000	0.313975	0.244033	62.958788
30.512097	0.002578	0.060894	0.060949	83.516540	11.776702	1.152862	104.915731	104.915731	104.915731	1.576749	0.441311	2.830000	0.308747	0.240305	62.999513
30.951609	0.002653	0.061769	0.061826	83.650222	11.960558	1.137744	104.669204	104.669204	104.669204	1.539679	0.462745	2.830000	0.303651	0.236611	63.033114
31.397452	0.002730	0.062656	0.062715	83.783631	12.148466	1.122789	104.425005	104.425005	104.425005	1.503489	0.485115	2.830000	0.298684	0.232951	63.059458
31.849718	0.002809	0.063556	0.063618	83.916770	12.340539	1.107997	104.183110	104.183110	104.183110	1.468161	0.508457	2.830000	0.293844	0.229325	63.078404
32.308498	0.002890	0.064468	0.064533	84.049646	12.536898	1.093367	103.943495	103.943495	103.943495	1.433680	0.532805	2.830000	0.289129	0.225734	63.089802
32.773887	0.002974	0.065394	0.065462	84.182265	12.737665	1.078898	103.706135	103.706135	103.706135	1.400028	0.558194	2.830000	0.284535	0.222176	63.093496
33.245979	0.003060	0.066333	0.066404	84.314632	12.942970	1.064591	103.471006	103.471006	103.471006	1.367189	0.584660	2.830000	0.280062	0.218652	63.089324
33.724872	0.003149	0.067285	0.067359	84.446751	13.152945	1.050444	103.238082	103.238082	103.238082	1.335147	0.612240	2.830000	0.275707	0.215161	63.077114
34.210663	0.003240	0.068251	0.068328	84.578629	13.367729	1.036456	103.007338	103.007338	103.007338	1.303885	0.640973	2.830000	0.271467	0.211704	63.056683
34.703452	0.003334	0.069231	0.069311	84.710270	13.587467	1.022627	102.778748	102.778748	102.778748	1.273388	0.670895	2.830000	0.267342	0.208280	63.027843
35.203338	0.003431	0.070225	0.070308	84.841678	13.812308	1.008956	102.552286	102.552286	102.552286	1.243639	0.702047	2.830000	0.263328	0.204890	62.990392
35.710426	0.003530	0.071232	0.071320	84.972860	14.042407	0.995443	102.327925	102.327925	102.327925	1.214623	0.734466	2.830000	0.259423	0.201532	62.944120
36.224818	0.003633	0.072254	0.072346	85.103818	14.277927	0.982086	102.105638	102.105638	102.105638	1.186324	0.768195	2.830000	0.255626	0.198208	62.888805
36.746619	0.003738	0.073291	0.073386	85.234558	14.519035	0.968884	101.885399	101.885399	101.885399	1.158728	0.803273	2.830000	0.251934	0.194917	62.824212
37.275937	0.003846	0.074342	0.074442	85.365085	14.765905	0.955836	101.667180	101.667180	101.667180	1.131818	0.839741	2.830000	0.248346	0.191658	62.750096
37.812880	0.003958	0.075409	0.075513	85.495401	15.018720	0.942942	101.450955	101.450955	101.450955	1.105580	0.877642	2.830000	0.244860	0.188432	62.666197
38.357556	0.004072	0.076490	0.076599	85.625512	15.277668	0.930200	101.236694	101.236694	101.236694	1.080000	0.917018	2.830000	0.241473	0.185238	62.572241
38.910079	0.004190	0.077587	0.077700	85.755421	15.542943	0.917610	101.024371	101.024371	101.024371	1.055062	0.957910	2.830000	0.238184	0.182076	62.467939
39.470560	0.004312	0.078700	0.078818	85.885133	15.814751	0.905170	100.813958	100.813958	100.813958	1.030752	1.000363	2.830000	0.234990	0.178947	62.352986
40.039115	0.004437	0.079828	0.079951	86.014650	16.093300	0.892879	100.605426	100.605426	100.605426	1.007056	1.044419	2.830000	0.231891	0.175850	62.227062
40.615860	0.004565	0.080972	0.081101	86.143977	16.378810	0.880737	100.398747	100.398747	100.398747	0.983961	1.090122	2.830000	0.228885	0.172784	62.089827
41.200912	0.004697	0.082133	0.082267	86.273117	16.671509	0.868741	100.193894	100.193894	100.193894	0.961452	1.137516	2.830000	0.225969	0.169751	61.940923
41.794392	0.004834	0.083310	0.083450	86.402073	16.971631	0.856891	99.990837	99.990837	99.990837	0.939516	1.186645	2.830000	0.223142	0.166749	61.779973
42.396421	0.004974	0.084504	0.084650	86.530849	17.279420	0.845186	99.789548	99.789548	99.789548	0.918140	1.237553	2.830000	0.220402	0.163779	61.606578
43.007121	0.005118	0.085714	0.085867	86.659448	17.595129	0.833624	99.589999	99.589999	99.589999	0.897311	1.290284	2.830000	0.217748	0.160840	61.420316
43.626619	0.005266	0.086942	0.087101	86.787873	17.919019	0.822205	99.392160	99.392160	99.392160	0.877016	1.344882	2.830000	0.215178	0.157933	61.220743
44.255040	0.005418	0.088187	0.088354	86.916126	18.251359	0.810926	99.196004	99.196004	99.196004	0.857242	1.401391	2.830000	0.212690	0.155057	61.007390
44.892513	0.005575	0.089450	0.089624	87.044212	18.592430	0.799788	99.001502	99.001502	99.001502	0.837977	1.459854	2.830000	0.210284	0.152212	60.779760
45.539168	0.005737	0.090731	0.090912	87.172131	18.942517	0.788787	98.808624	98.808624	98.808624	0.819208	1.520316	2.830000	0.207957	0.149399	60.537330
46.195138	0.005903	0.092029	0.092219	87.299888	19.301916	0.777925	98.617343	98.617343	98.617343	0.800925	1.582820	2.830000	0.205708	0.146618	60.279545
46.860558	0.006074	0.093346	0.093544	87.427484	19.670932	0.767198	98.427629	98.427629	98.427629	0.783115	1.647409	2.830000	0.203536	0.143867	60.005822
47.535562	0.006250	0.094682	0.094888	87.554922	20.049877	0.756606	98.239453	98.239453	98.239453	0.765766	1.714124	2.830000	0.201439	0.141148	59.715543
48.220290	0.006431	0.096037	0.096252	87.682204	20.439069	0.746147	98.052788	98.052788	98.052788	0.748868	1.783008	2.830000	0.199417	0.138460	59.408056
48.914880	0.006617	0.097410	0.097635	87.809333	20.838834	0.735821	97.867604	97.867604	97.867604	0.732410	1.854101	2.830000	0.197467	0.135804	59.082672
49.619476	0.006808	0.098803	0.099038	87.936309	21.249504	0.725626	97.683872	97.683872	97.683872	0.716379	1.927445	2.830000	0.195588	0.133180	58.738665
50.334221	0.007006	0.100216	0.100461	88.063137	21.671414	0.715560	97.501565	97.501565	97.501565	0.700767	2.003080	2.830000	0.193780	0.130587	58.375266
51.059262	0.007208	0.101649	0.101904	88.189816	22.104903	0.705622	97.320652	97.320652	97.320652	0.685562	2.081042	2.830000	0.192041	0.128026	57.991667
51.794747	0.007417	0.103101	0.103368	88.316349	22.550311	0.695812	97.141107	97.141107	97.141107	0.670755	2.161372	2.830000	0.190371	0.125497	57.587012
52.540826	0.007632	0.104574	0.104852	88.442738	23.007977	0.686127	96.962900	96.962900	96.962900	0.656334	2.244104	2.830000	0.188767	0.123001	57.160403
53.297652	0.007853	0.106068	0.106358	88.568984	23.478238	0.676567	96.786004	96.786004	96.786004	0.642292	2.329275	2.830000	0.187229	0.120537	56.710890
54.065379	0.008080	0.107583	0.107886	88.695089	23.961423	0.667129	96.610389	96.610389	96.610389	0.628617	2.416918	2.830000	0.185755	0.118107	56.237475
54.844166	0.008314	0.109119	0.109435	88.821053	24.457851	0.657814	96.436028	96.436028	96.436028	0.615301	2.507067	2.830000	0.184346	0.115709	55.739106
55.634170	0.008554	0.110676	0.111006	88.946879	24.967827	0.648618	96.262892	96.262892	96.262892	0.602334	2.599753	2.830000	0.183000	0.113346	55.214681
56.435554	0.008802	0.112256	0.112600	89.072567	25.491636	0.639542	96.090954	96.090954	96.090954	0.589707	2.695006	2.830000	0.181715	0.111017	54.663039
57.248482	0.009056	0.113857	0.114217	89.198119	26.029539	0.630584	95.920186	95.920186	95.920186	0.577412	2.792853	2.830000	0.180492	0.108723	54.082966
58.073119	0.009318	0.115481	0.115856	89.323535	26.581763	0.621743	95.750559	95.750559	95.750559	0.565440	2.893322	2.830000	0.179329	0.106464	53.473191
58.909635	0.009588	0.117127	0.117519	89.448816	27.148494	0.613016	95.582047	95.582047	95.582047	0.553783	2.996436	2.830000	0.178226	0.104242	52.832385
59.758201	0.009865	0.118797	0.119206	89.573964	27.729871	0.604404	95.414621	95.414621	95.414621	0.542432	3.102218	2.830000	0.177182	0.102056	52.159164
60.618990	0.010150	0.120490	0.120916	89.698978	28.325969	0.595904	95.248255	95.248255	95.248255	0.531379	3.210690	2.830000	0.176195	0.099908	51.452089
61.492178	0.010444	0.122206	0.122651	89.823859	28.936795	0.587516	95.082921	95.082921	95.082921	0.520616	3.321868	2.830000	0.175266	0.097799	50.709667
