Freq (hertz)	Ra (norm)	Xa (norm)	Za (norm)	SPL (dB)	Ze (ohms)	Xd (mm) 	WPhase (deg)	UPhase (deg)	CPhase (deg)	Delay (msec)	Efficiency (%)	Ein (volts)	Pin (watts)	Iin (amps)	ZePhase (deg)

10.000000	0.000277	0.019982	0.019984	69.410870	7.521121	2.114809	134.699620	134.699620	134.699620	8.629207	0.006737	2.830000	0.785803	0.376274	42.443455
10.144045	0.000285	0.020270	0.020272	69.601373	7.580379	2.100751	134.254872	134.254872	134.254872	8.524325	0.007140	2.830000	0.774665	0.373332	42.843344
10.290166	0.000293	0.020562	0.020564	69.790986	7.641157	2.086572	133.809239	133.809239	133.809239	8.419254	0.007568	2.830000	0.763509	0.370363	43.243300
10.438391	0.000302	0.020858	0.020860	69.979709	7.703495	2.072277	133.362798	133.362798	133.362798	8.314038	0.008021	2.830000	0.752341	0.367366	43.643226
10.588751	0.000311	0.021158	0.021160	70.167539	7.767433	2.057868	132.915625	132.915625	132.915625	8.208718	0.008502	2.830000	0.741164	0.364342	44.043026
10.741277	0.000320	0.021463	0.021465	70.354476	7.833011	2.043350	132.467795	132.467795	132.467795	8.103339	0.009012	2.830000	0.729984	0.361291	44.442602
10.896000	0.000329	0.021772	0.021774	70.540520	7.900273	2.028725	132.019385	132.019385	132.019385	7.997942	0.009553	2.830000	0.718805	0.358215	44.841857
11.052951	0.000339	0.022085	0.022088	70.725670	7.969263	2.013998	131.570470	131.570470	131.570470	7.892571	0.010126	2.830000	0.707632	0.355114	45.240691
11.212164	0.000348	0.022403	0.022406	70.909927	8.040026	1.999172	131.121127	131.121127	131.121127	7.787269	0.010735	2.830000	0.696470	0.351989	45.639004
11.373670	0.000358	0.022726	0.022729	71.093291	8.112608	1.984252	130.671430	130.671430	130.671430	7.682080	0.011380	2.830000	0.685323	0.348840	46.036696
11.537502	0.000369	0.023053	0.023056	71.275763	8.187059	1.969241	130.221456	130.221456	130.221456	7.577045	0.012064	2.830000	0.674196	0.345667	46.433667
11.703695	0.000380	0.023385	0.023388	71.457345	8.263428	1.954143	129.771278	129.771278	129.771278	7.472207	0.012790	2.830000	0.663094	0.342473	46.829815
11.872281	0.000391	0.023722	0.023725	71.638038	8.341768	1.938963	129.320971	129.320971	129.320971	7.367609	0.013559	2.830000	0.652021	0.339257	47.225037
12.043295	0.000402	0.024063	0.024067	71.817845	8.422131	1.923704	128.870609	128.870609	128.870609	7.263291	0.014376	2.830000	0.640982	0.336019	47.619232
12.216773	0.000414	0.024410	0.024413	71.996766	8.504573	1.908371	128.420265	128.420265	128.420265	7.159297	0.015242	2.830000	0.629981	0.332762	48.012297
12.392750	0.000426	0.024761	0.024765	72.174807	8.589152	1.892968	127.970010	127.970010	127.970010	7.055665	0.016161	2.830000	0.619024	0.329485	48.404127
12.571262	0.000438	0.025118	0.025121	72.351968	8.675927	1.877500	127.519917	127.519917	127.519917	6.952437	0.017136	2.830000	0.608113	0.326190	48.794620
12.752345	0.000451	0.025479	0.025483	72.528255	8.764960	1.861971	127.070055	127.070055	127.070055	6.849653	0.018170	2.830000	0.597254	0.322877	49.183670
12.936037	0.000464	0.025846	0.025850	72.703669	8.856315	1.846384	126.620494	126.620494	126.620494	6.747350	0.019268	2.830000	0.586451	0.319546	49.571174
13.122374	0.000477	0.026218	0.026223	72.878216	8.950058	1.830746	126.171303	126.171303	126.171303	6.645567	0.020432	2.830000	0.575708	0.316199	49.957027
13.311396	0.000491	0.026596	0.026600	73.051900	9.046259	1.815060	125.722549	125.722549	125.722549	6.544342	0.021668	2.830000	0.565030	0.312837	50.341123
13.503140	0.000505	0.026979	0.026983	73.224726	9.144988	1.799330	125.274298	125.274298	125.274298	6.443710	0.022979	2.830000	0.554419	0.309459	50.723355
13.697647	0.000520	0.027367	0.027372	73.396698	9.246321	1.783562	124.826614	124.826614	124.826614	6.343708	0.024370	2.830000	0.543881	0.306068	51.103619
13.894955	0.000535	0.027761	0.027766	73.567821	9.350336	1.767759	124.379561	124.379561	124.379561	6.244370	0.025847	2.830000	0.533419	0.302663	51.481807
14.095105	0.000551	0.028161	0.028166	73.738101	9.457112	1.751926	123.933202	123.933202	123.933202	6.145730	0.027414	2.830000	0.523037	0.299246	51.857812
14.298139	0.000567	0.028566	0.028572	73.907544	9.566735	1.736068	123.487596	123.487596	123.487596	6.047819	0.029077	2.830000	0.512738	0.295817	52.231526
14.504097	0.000583	0.028977	0.028983	74.076156	9.679291	1.720189	123.042802	123.042802	123.042802	5.950670	0.030843	2.830000	0.502526	0.292377	52.602841
14.713021	0.000600	0.029394	0.029400	74.243944	9.794873	1.704294	122.598879	122.598879	122.598879	5.854313	0.032716	2.830000	0.492405	0.288927	52.971647
14.924955	0.000617	0.029817	0.029824	74.410912	9.913576	1.688386	122.155881	122.155881	122.155881	5.758777	0.034706	2.830000	0.482377	0.285467	53.337834
15.139942	0.000635	0.030247	0.030253	74.577070	10.035500	1.672471	121.713863	121.713863	121.713863	5.664091	0.036817	2.830000	0.472446	0.281999	53.701292
15.358026	0.000654	0.030682	0.030689	74.742423	10.160748	1.656553	121.272878	121.272878	121.272878	5.570280	0.039059	2.830000	0.462615	0.278523	54.061909
15.579251	0.000673	0.031124	0.031131	74.906978	10.289430	1.640635	120.832976	120.832976	120.832976	5.477371	0.041438	2.830000	0.452886	0.275040	54.419572
15.803663	0.000692	0.031572	0.031579	75.070744	10.421660	1.624723	120.394205	120.394205	120.394205	5.385388	0.043965	2.830000	0.443263	0.271550	54.774167
16.031307	0.000712	0.032026	0.032034	75.233727	10.557558	1.608820	119.956614	119.956614	119.956614	5.294354	0.046648	2.830000	0.433749	0.268054	55.125577
16.262231	0.000733	0.032487	0.032495	75.395935	10.697248	1.592932	119.520246	119.520246	119.520246	5.204292	0.049496	2.830000	0.424345	0.264554	55.473687
16.496481	0.000754	0.032955	0.032963	75.557377	10.840862	1.577061	119.085146	119.085146	119.085146	5.115221	0.052520	2.830000	0.415054	0.261049	55.818377
16.734105	0.000776	0.033429	0.033438	75.718061	10.988538	1.561212	118.651355	118.651355	118.651355	5.027162	0.055732	2.830000	0.405879	0.257541	56.159525
16.975152	0.000798	0.033910	0.033920	75.877994	11.140420	1.545389	118.218912	118.218912	118.218912	4.940133	0.059142	2.830000	0.396821	0.254030	56.497010
17.219671	0.000822	0.034398	0.034408	76.037185	11.296660	1.529596	117.787854	117.787854	117.787854	4.854150	0.062764	2.830000	0.387883	0.250517	56.830705
17.467712	0.000845	0.034893	0.034903	76.195643	11.457417	1.513836	117.358217	117.358217	117.358217	4.769229	0.066611	2.830000	0.379067	0.247002	57.160482
17.719326	0.000870	0.035395	0.035406	76.353377	11.622861	1.498114	116.930035	116.930035	116.930035	4.685384	0.070695	2.830000	0.370374	0.243486	57.486209
17.974565	0.000895	0.035905	0.035916	76.510394	11.793169	1.482434	116.503339	116.503339	116.503339	4.602630	0.075034	2.830000	0.361806	0.239969	57.807751
18.233480	0.000921	0.036421	0.036433	76.666704	11.968526	1.466798	116.078159	116.078159	116.078159	4.520977	0.079642	2.830000	0.353364	0.236454	58.124971
18.496125	0.000948	0.036946	0.036958	76.822316	12.149130	1.451211	115.654522	115.654522	115.654522	4.440436	0.084536	2.830000	0.345050	0.232938	58.437725
18.762553	0.000975	0.037477	0.037490	76.977239	12.335189	1.435676	115.232454	115.232454	115.232454	4.361017	0.089735	2.830000	0.336865	0.229425	58.745865
19.032818	0.001004	0.038016	0.038030	77.131482	12.526922	1.420196	114.811977	114.811977	114.811977	4.282729	0.095257	2.830000	0.328811	0.225913	59.049239
19.306977	0.001033	0.038563	0.038577	77.285054	12.724561	1.404774	114.393115	114.393115	114.393115	4.205578	0.101122	2.830000	0.320888	0.222405	59.347690
19.585085	0.001063	0.039118	0.039133	77.437964	12.928353	1.389414	113.975885	113.975885	113.975885	4.129571	0.107353	2.830000	0.313097	0.218899	59.641052
19.867199	0.001094	0.039681	0.039696	77.590221	13.138557	1.374120	113.560307	113.560307	113.560307	4.054713	0.113971	2.830000	0.305439	0.215397	59.929154
20.153377	0.001125	0.040252	0.040268	77.741835	13.355449	1.358893	113.146394	113.146394	113.146394	3.981007	0.121000	2.830000	0.297914	0.211899	60.211818
20.443677	0.001158	0.040831	0.040848	77.892814	13.579322	1.343737	112.734162	112.734162	112.734162	3.908457	0.128467	2.830000	0.290525	0.208405	60.488857
20.738158	0.001192	0.041419	0.041436	78.043169	13.810487	1.328654	112.323621	112.323621	112.323621	3.837063	0.136399	2.830000	0.283270	0.204917	60.760075
21.036882	0.001226	0.042014	0.042032	78.192908	14.049273	1.313648	111.914782	111.914782	111.914782	3.766828	0.144824	2.830000	0.276150	0.201434	61.025266
21.339908	0.001262	0.042619	0.042637	78.342040	14.296032	1.298721	111.507652	111.507652	111.507652	3.697751	0.153773	2.830000	0.269165	0.197957	61.284212
21.647300	0.001298	0.043232	0.043251	78.490575	14.551138	1.283875	111.102238	111.102238	111.102238	3.629831	0.163277	2.830000	0.262317	0.194487	61.536685
21.959119	0.001336	0.043854	0.043874	78.638521	14.814989	1.269114	110.698543	110.698543	110.698543	3.563066	0.173372	2.830000	0.255604	0.191023	61.782442
22.275430	0.001375	0.044484	0.044506	78.785889	15.088011	1.254439	110.296569	110.296569	110.296569	3.497453	0.184092	2.830000	0.249028	0.187566	62.021227
22.596297	0.001415	0.045124	0.045146	78.932687	15.370658	1.239852	109.896318	109.896318	109.896318	3.432988	0.195477	2.830000	0.242587	0.184117	62.252767
22.921786	0.001456	0.045773	0.045796	79.078924	15.663416	1.225356	109.497787	109.497787	109.497787	3.369667	0.207566	2.830000	0.236282	0.180676	62.476771
23.251963	0.001498	0.046432	0.046456	79.224609	15.966804	1.210953	109.100975	109.100975	109.100975	3.307485	0.220402	2.830000	0.230112	0.177243	62.692930
23.586897	0.001541	0.047099	0.047124	79.369751	16.281378	1.196644	108.705875	108.705875	108.705875	3.246436	0.234029	2.830000	0.224078	0.173818	62.900913
23.926655	0.001586	0.047777	0.047803	79.514359	16.607737	1.182433	108.312483	108.312483	108.312483	3.186513	0.248495	2.830000	0.218179	0.170403	63.100366
24.271307	0.001632	0.048464	0.048491	79.658441	16.946521	1.168319	107.920788	107.920788	107.920788	3.127709	0.263848	2.830000	0.212414	0.166996	63.290908
24.620924	0.001679	0.049160	0.049189	79.802007	17.298420	1.154306	107.530783	107.530783	107.530783	3.070016	0.280142	2.830000	0.206784	0.163599	63.472130
24.975577	0.001728	0.049867	0.049897	79.945064	17.664175	1.140394	107.142454	107.142454	107.142454	3.013425	0.297429	2.830000	0.201288	0.160211	63.643593
25.335338	0.001778	0.050584	0.050615	80.087622	18.044587	1.126585	106.755791	106.755791	106.755791	2.957927	0.315768	2.830000	0.195924	0.156834	63.804821
25.700282	0.001830	0.051311	0.051344	80.229689	18.440517	1.112881	106.370777	106.370777	106.370777	2.903513	0.335218	2.830000	0.190693	0.153466	63.955302
26.070482	0.001883	0.052049	0.052083	80.371272	18.852899	1.099283	105.987397	105.987397	105.987397	2.850172	0.355841	2.830000	0.185595	0.150110	64.094480
26.446016	0.001937	0.052797	0.052833	80.512381	19.282741	1.085792	105.605634	105.605634	105.605634	2.797894	0.377702	2.830000	0.180627	0.146763	64.221751
26.826958	0.001993	0.053556	0.053593	80.653023	19.731136	1.072409	105.225469	105.225469	105.225469	2.746667	0.400869	2.830000	0.175790	0.143428	64.336460
27.213388	0.002051	0.054326	0.054365	80.793207	20.199269	1.059135	104.846881	104.846881	104.846881	2.696481	0.425410	2.830000	0.171083	0.140104	64.437893
27.605384	0.002111	0.055107	0.055147	80.932939	20.688428	1.045971	104.469849	104.469849	104.469849	2.647323	0.451399	2.830000	0.166505	0.136791	64.525272
28.003026	0.002172	0.055899	0.055941	81.072228	21.200015	1.032919	104.094349	104.094349	104.094349	2.599181	0.478909	2.830000	0.162056	0.133490	64.597745
28.406397	0.002235	0.056702	0.056746	81.211082	21.735558	1.019979	103.720359	103.720359	103.720359	2.552042	0.508017	2.830000	0.157734	0.130201	64.654379
28.815578	0.002300	0.057517	0.057563	81.349507	22.296722	1.007152	103.347852	103.347852	103.347852	2.505894	0.538800	2.830000	0.153539	0.126924	64.694151
29.230652	0.002366	0.058343	0.058391	81.487511	22.885331	0.994438	102.976801	102.976801	102.976801	2.460724	0.571339	2.830000	0.149469	0.123660	64.715936
29.651706	0.002435	0.059181	0.059232	81.625102	23.503380	0.981838	102.607179	102.607179	102.607179	2.416518	0.605713	2.830000	0.145525	0.120408	64.718494
30.078825	0.002505	0.060032	0.060084	81.762285	24.153056	0.969352	102.238956	102.238956	102.238956	2.373264	0.642004	2.830000	0.141705	0.117169	64.700455
30.512097	0.002578	0.060894	0.060949	81.899069	24.836763	0.956982	101.872102	101.872102	101.872102	2.330946	0.680293	2.830000	0.138008	0.113944	64.660303
30.951609	0.002653	0.061769	0.061826	82.035459	25.557146	0.944727	101.506586	101.506586	101.506586	2.289551	0.720659	2.830000	0.134434	0.110732	64.596358
31.397452	0.002730	0.062656	0.062715	82.171463	26.317121	0.932588	101.142376	101.142376	101.142376	2.249065	0.763184	2.830000	0.130982	0.107535	64.506751
31.849718	0.002809	0.063556	0.063618	82.307086	27.119904	0.920564	100.779437	100.779437	100.779437	2.209474	0.807943	2.830000	0.127650	0.104351	64.389399
32.308498	0.002890	0.064468	0.064533	82.442336	27.969055	0.908658	100.417737	100.417737	100.417737	2.170764	0.855011	2.830000	0.124439	0.101183	64.241977
32.773887	0.002974	0.065394	0.065462	82.577217	28.868516	0.896867	100.057239	100.057239	100.057239	2.132921	0.904459	2.830000	0.121347	0.098031	64.061877
33.245979	0.003060	0.066333	0.066404	82.711737	29.822659	0.885193	99.697906	99.697906	99.697906	2.095929	0.956351	2.830000	0.118373	0.094894	63.846177
33.724872	0.003149	0.067285	0.067359	82.845900	30.836343	0.873635	99.339703	99.339703	99.339703	2.059774	1.010746	2.830000	0.115516	0.091775	63.591581
34.210663	0.003240	0.068251	0.068328	82.979713	31.914970	0.862194	98.982590	98.982590	98.982590	2.024443	1.067696	2.830000	0.112776	0.088673	63.294374
34.703452	0.003334	0.069231	0.069311	83.113181	33.064558	0.850869	98.626529	98.626529	98.626529	1.989919	1.127243	2.830000	0.110153	0.085590	62.950348
35.203338	0.003431	0.070225	0.070308	83.246309	34.291816	0.839661	98.271480	98.271480	98.271480	1.956190	1.189420	2.830000	0.107644	0.082527	62.554725
35.710426	0.003530	0.071232	0.071320	83.379103	35.604221	0.828569	97.917403	97.917403	97.917403	1.923240	1.254244	2.830000	0.105250	0.079485	62.102067
36.224818	0.003633	0.072254	0.072346	83.511567	37.010114	0.817592	97.564255	97.564255	97.564255	1.891055	1.321724	2.830000	0.102970	0.076466	61.586167
36.746619	0.003738	0.073291	0.073386	83.643706	38.518787	0.806731	97.211996	97.211996	97.211996	1.859621	1.391850	2.830000	0.100803	0.073471	60.999917
37.275937	0.003846	0.074342	0.074442	83.775526	40.140579	0.795986	96.860582	96.860582	96.860582	1.828923	1.464596	2.830000	0.098748	0.070502	60.335156
37.812880	0.003958	0.075409	0.075513	83.907029	41.886955	0.785356	96.509969	96.509969	96.509969	1.798946	1.539918	2.830000	0.096805	0.067563	59.582491
38.357556	0.004072	0.076490	0.076599	84.038222	43.770575	0.774840	96.160114	96.160114	96.160114	1.769678	1.617753	2.830000	0.094974	0.064655	58.731088
38.910079	0.004190	0.077587	0.077700	84.169107	45.805309	0.764438	95.810972	95.810972	95.810972	1.741103	1.698016	2.830000	0.093253	0.061783	57.768421
39.470560	0.004312	0.078700	0.078818	84.299689	48.006192	0.754150	95.462497	95.462497	95.462497	1.713208	1.780600	2.830000	0.091642	0.058951	56.679990
40.039115	0.004437	0.079828	0.079951	84.429972	50.389244	0.743976	95.114644	95.114644	95.114644	1.685978	1.865377	2.830000	0.090142	0.056163	55.449003
40.615860	0.004565	0.080972	0.081101	84.559960	52.971095	0.733914	94.767366	94.767366	94.767366	1.659400	1.952193	2.830000	0.088750	0.053425	54.056022
41.200912	0.004697	0.082133	0.082267	84.689655	55.768293	0.723964	94.420615	94.420615	94.420615	1.633461	2.040872	2.830000	0.087467	0.050746	52.478595
41.794392	0.004834	0.083310	0.083450	84.819061	58.796127	0.714126	94.074344	94.074344	94.074344	1.608146	2.131215	2.830000	0.086293	0.048132	50.690914
42.396421	0.004974	0.084504	0.084650	84.948182	62.066736	0.704399	93.728506	93.728506	93.728506	1.583443	2.222999	2.830000	0.085226	0.045596	48.663550
43.007121	0.005118	0.085714	0.085867	85.077020	65.586167	0.694783	93.383050	93.383050	93.383050	1.559338	2.315981	2.830000	0.084268	0.043149	46.363384
43.626619	0.005266	0.086942	0.087101	85.205579	69.350028	0.685276	93.037929	93.037929	93.037929	1.535817	2.409896	2.830000	0.083417	0.040807	43.753917
44.255040	0.005418	0.088187	0.088354	85.333860	73.337311	0.675878	92.693092	92.693092	92.693092	1.512869	2.504464	2.830000	0.082673	0.038589	40.796239
44.892513	0.005575	0.089450	0.089624	85.461867	77.502194	0.666588	92.348490	92.348490	92.348490	1.490480	2.599387	2.830000	0.082037	0.036515	37.451043
45.539168	0.005737	0.090731	0.090912	85.589601	81.764135	0.657406	92.004072	92.004072	92.004072	1.468638	2.694356	2.830000	0.081508	0.034612	33.682190
46.195138	0.005903	0.092029	0.092219	85.717065	85.997764	0.648330	91.659787	91.659787	91.659787	1.447330	2.789053	2.830000	0.081086	0.032908	29.462285
46.860558	0.006074	0.093346	0.093544	85.844261	90.025999	0.639361	91.315584	91.315584	91.315584	1.426545	2.883153	2.830000	0.080770	0.031435	24.780450
47.535562	0.006250	0.094682	0.094888	85.971190	93.622108	0.630497	90.971412	90.971412	90.971412	1.406269	2.976331	2.830000	0.080562	0.030228	19.651671
48.220290	0.006431	0.096037	0.096252	86.097855	96.527498	0.621738	90.627218	90.627218	90.627218	1.386491	3.068264	2.830000	0.080461	0.029318	14.125754
48.914880	0.006617	0.097410	0.097635	86.224256	98.489020	0.613082	90.282951	90.282951	90.282951	1.367199	3.158635	2.830000	0.080468	0.028734	8.292414
49.619476	0.006808	0.098803	0.099038	86.350395	99.310743	0.604529	89.938558	89.938558	89.938558	1.348381	3.247138	2.830000	0.080581	0.028496	2.278551
50.334221	0.007006	0.100216	0.100461	86.476274	98.903404	0.596078	89.593985	89.593985	89.593985	1.330028	3.333482	2.830000	0.080802	0.028614	-3.764378
51.059262	0.007208	0.101649	0.101904	86.601892	97.309531	0.587728	89.249181	89.249181	89.249181	1.312126	3.417393	2.830000	0.081131	0.029082	-9.680727
51.794747	0.007417	0.103101	0.103368	86.727252	94.691390	0.579478	88.904091	88.904091	88.904091	1.294665	3.498617	2.830000	0.081569	0.029887	-15.332421
52.540826	0.007632	0.104574	0.104852	86.852353	91.288038	0.571328	88.558661	88.558661	88.558661	1.277634	3.576926	2.830000	0.082114	0.031001	-20.614997
53.297652	0.007853	0.106068	0.106358	86.977196	87.361861	0.563276	88.212839	88.212839	88.212839	1.261022	3.652116	2.830000	0.082769	0.032394	-25.463982
54.065379	0.008080	0.107583	0.107886	87.101781	83.154676	0.555322	87.866569	87.866569	87.866569	1.244820	3.724013	2.830000	0.083534	0.034033	-29.852296
54.844166	0.008314	0.109119	0.109435	87.226108	78.862862	0.547464	87.519798	87.519798	87.519798	1.229016	3.792469	2.830000	0.084408	0.035885	-33.782277
55.634170	0.008554	0.110676	0.111006	87.350178	74.630288	0.539702	87.172471	87.172471	87.172471	1.213601	3.857368	2.830000	0.085393	0.037920	-37.276158
56.435554	0.008802	0.112256	0.112600	87.473989	70.552720	0.532035	86.824532	86.824532	86.824532	1.198564	3.918622	2.830000	0.086489	0.040112	-40.367576
57.248482	0.009056	0.113857	0.114217	87.597543	66.687314	0.524462	86.475928	86.475928	86.475928	1.183897	3.976173	2.830000	0.087697	0.042437	-43.095165
58.073119	0.009318	0.115481	0.115856	87.720837	63.062892	0.516982	86.126604	86.126604	86.126604	1.169588	4.029991	2.830000	0.089017	0.044876	-45.498284
58.909635	0.009588	0.117127	0.117519	87.843872	59.688882	0.509594	85.776503	85.776503	85.776503	1.155630	4.080071	2.830000	0.090451	0.047413	-47.614487
59.758201	0.009865	0.118797	0.119206	87.966645	56.562243	0.502298	85.425571	85.425571	85.425571	1.142011	4.126435	2.830000	0.091999	0.050033	-49.478214
60.618990	0.010150	0.120490	0.120916	88.089157	53.672452	0.495091	85.073752	85.073752	85.073752	1.128725	4.169127	2.830000	0.093662	0.052727	-51.120272
61.492178	0.010444	0.122206	0.122651	88.211406	51.004925	0.487974	84.720991	84.720991	84.720991	1.115761	4.208212	2.830000	0.095442	0.055485	-52.567792
