Freq (hertz)	Ra (norm)	Xa (norm)	Za (norm)	SPL (dB)	Ze (ohms)	Xd (mm) 	WPhase (deg)	UPhase (deg)	CPhase (deg)	Delay (msec)	Efficiency (%)	Ein (volts)	Pin (watts)	Iin (amps)	ZePhase (deg)

10.000000	0.000117	0.012973	0.012974	60.459741	5.758026	1.790404	156.833026	156.833026	156.833026	6.045014	0.000518	2.830000	1.301164	0.491488	20.694775
10.144045	0.000120	0.013160	0.013161	60.694112	5.771399	1.787505	156.519955	156.519955	156.519955	6.029538	0.000549	2.830000	1.295775	0.490349	20.970410
10.290166	0.000124	0.013350	0.013350	60.928117	5.785167	1.784537	156.203196	156.203196	156.203196	6.013712	0.000582	2.830000	1.290266	0.489182	21.249109
10.438391	0.000127	0.013542	0.013543	61.161750	5.799339	1.781497	155.882729	155.882729	155.882729	5.997532	0.000617	2.830000	1.284636	0.487987	21.530883
10.588751	0.000131	0.013737	0.013738	61.395002	5.813930	1.778384	155.558532	155.558532	155.558532	5.980991	0.000654	2.830000	1.278882	0.486762	21.815739
10.741277	0.000135	0.013935	0.013935	61.627864	5.828952	1.775197	155.230582	155.230582	155.230582	5.964085	0.000693	2.830000	1.273004	0.485508	22.103685
10.896000	0.000139	0.014136	0.014136	61.860328	5.844417	1.771935	154.898861	154.898861	154.898861	5.946809	0.000734	2.830000	1.267000	0.484223	22.394727
11.052951	0.000143	0.014339	0.014340	62.092384	5.860339	1.768595	154.563348	154.563348	154.563348	5.929157	0.000779	2.830000	1.260868	0.482907	22.688872
11.212164	0.000147	0.014546	0.014546	62.324025	5.876732	1.765178	154.224025	154.224025	154.224025	5.911125	0.000825	2.830000	1.254607	0.481560	22.986122
11.373670	0.000151	0.014755	0.014756	62.555240	5.893610	1.761680	153.880874	153.880874	153.880874	5.892707	0.000875	2.830000	1.248215	0.480181	23.286480
11.537502	0.000155	0.014968	0.014968	62.786021	5.910988	1.758102	153.533878	153.533878	153.533878	5.873900	0.000927	2.830000	1.241691	0.478769	23.589948
11.703695	0.000160	0.015183	0.015184	63.016359	5.928882	1.754442	153.183020	153.183020	153.183020	5.854699	0.000983	2.830000	1.235033	0.477324	23.896526
11.872281	0.000165	0.015402	0.015403	63.246243	5.947306	1.750698	152.828286	152.828286	152.828286	5.835098	0.001042	2.830000	1.228241	0.475846	24.206211
12.043295	0.000169	0.015624	0.015625	63.475666	5.966278	1.746869	152.469662	152.469662	152.469662	5.815094	0.001105	2.830000	1.221312	0.474333	24.519002
12.216773	0.000174	0.015849	0.015850	63.704616	5.985814	1.742953	152.107133	152.107133	152.107133	5.794683	0.001172	2.830000	1.214246	0.472784	24.834893
12.392750	0.000179	0.016077	0.016078	63.933084	6.005932	1.738950	151.740689	151.740689	151.740689	5.773861	0.001242	2.830000	1.207042	0.471201	25.153879
12.571262	0.000185	0.016308	0.016309	64.161061	6.026650	1.734858	151.370318	151.370318	151.370318	5.752623	0.001317	2.830000	1.199698	0.469581	25.475951
12.752345	0.000190	0.016543	0.016544	64.388536	6.047985	1.730676	150.996009	150.996009	150.996009	5.730967	0.001397	2.830000	1.192215	0.467924	25.801099
12.936037	0.000195	0.016782	0.016783	64.615500	6.069958	1.726403	150.617756	150.617756	150.617756	5.708888	0.001481	2.830000	1.184590	0.466231	26.129313
13.122374	0.000201	0.017023	0.017024	64.841942	6.092588	1.722036	150.235549	150.235549	150.235549	5.686384	0.001571	2.830000	1.176823	0.464499	26.460578
13.311396	0.000207	0.017268	0.017270	65.067853	6.115896	1.717575	149.849382	149.849382	149.849382	5.663452	0.001666	2.830000	1.168913	0.462729	26.794880
13.503140	0.000213	0.017517	0.017518	65.293221	6.139903	1.713020	149.459251	149.459251	149.459251	5.640089	0.001767	2.830000	1.160861	0.460919	27.132201
13.697647	0.000219	0.017769	0.017771	65.518038	6.164631	1.708367	149.065151	149.065151	149.065151	5.616292	0.001874	2.830000	1.152665	0.459070	27.472522
13.894955	0.000226	0.018025	0.018027	65.742291	6.190103	1.703617	148.667081	148.667081	148.667081	5.592059	0.001988	2.830000	1.144325	0.457181	27.815821
14.095105	0.000232	0.018285	0.018286	65.965971	6.216342	1.698768	148.265038	148.265038	148.265038	5.567388	0.002109	2.830000	1.135841	0.455252	28.162076
14.298139	0.000239	0.018548	0.018550	66.189067	6.243374	1.693819	147.859023	147.859023	147.859023	5.542279	0.002237	2.830000	1.127212	0.453281	28.511259
14.504097	0.000246	0.018815	0.018817	66.411569	6.271222	1.688769	147.449038	147.449038	147.449038	5.516728	0.002373	2.830000	1.118440	0.451268	28.863342
14.713021	0.000253	0.019086	0.019088	66.633466	6.299914	1.683617	147.035086	147.035086	147.035086	5.490736	0.002517	2.830000	1.109523	0.449212	29.218295
14.924955	0.000260	0.019361	0.019363	66.854748	6.329476	1.678362	146.617171	146.617171	146.617171	5.464302	0.002671	2.830000	1.100462	0.447114	29.576085
15.139942	0.000268	0.019640	0.019642	67.075403	6.359937	1.673002	146.195299	146.195299	146.195299	5.437424	0.002833	2.830000	1.091258	0.444973	29.936676
15.358026	0.000275	0.019923	0.019925	67.295420	6.391326	1.667537	145.769478	145.769478	145.769478	5.410104	0.003006	2.830000	1.081911	0.442788	30.300029
15.579251	0.000283	0.020210	0.020212	67.514790	6.423673	1.661967	145.339717	145.339717	145.339717	5.382342	0.003190	2.830000	1.072422	0.440558	30.666103
15.803663	0.000292	0.020501	0.020503	67.733502	6.457009	1.656289	144.906026	144.906026	144.906026	5.354138	0.003385	2.830000	1.062792	0.438283	31.034854
16.031307	0.000300	0.020796	0.020798	67.951544	6.491368	1.650503	144.468417	144.468417	144.468417	5.325494	0.003593	2.830000	1.053021	0.435964	31.406235
16.262231	0.000309	0.021095	0.021098	68.168906	6.526783	1.644610	144.026904	144.026904	144.026904	5.296410	0.003813	2.830000	1.043112	0.433598	31.780197
16.496481	0.000318	0.021399	0.021401	68.385577	6.563290	1.638606	143.581503	143.581503	143.581503	5.266889	0.004047	2.830000	1.033064	0.431186	32.156687
16.734105	0.000327	0.021707	0.021710	68.601547	6.600924	1.632493	143.132230	143.132230	143.132230	5.236934	0.004296	2.830000	1.022881	0.428728	32.535648
16.975152	0.000337	0.022020	0.022022	68.816804	6.639725	1.626270	142.679104	142.679104	142.679104	5.206546	0.004560	2.830000	1.012563	0.426222	32.917022
17.219671	0.000346	0.022337	0.022340	69.031339	6.679731	1.619935	142.222144	142.222144	142.222144	5.175730	0.004841	2.830000	1.002112	0.423670	33.300746
17.467712	0.000356	0.022658	0.022661	69.245140	6.720984	1.613489	141.761373	141.761373	141.761373	5.144488	0.005139	2.830000	0.991531	0.421069	33.686753
17.719326	0.000367	0.022985	0.022988	69.458197	6.763526	1.606932	141.296814	141.296814	141.296814	5.112826	0.005457	2.830000	0.980822	0.418421	34.074974
17.974565	0.000377	0.023316	0.023319	69.670500	6.807403	1.600261	140.828492	140.828492	140.828492	5.080746	0.005794	2.830000	0.969986	0.415724	34.465337
18.233480	0.000388	0.023651	0.023655	69.882038	6.852661	1.593479	140.356433	140.356433	140.356433	5.048255	0.006153	2.830000	0.959028	0.412978	34.857763
18.496125	0.000400	0.023992	0.023995	70.092800	6.899347	1.586583	139.880666	139.880666	139.880666	5.015358	0.006534	2.830000	0.947948	0.410184	35.252172
18.762553	0.000411	0.024337	0.024341	70.302778	6.947514	1.579575	139.401220	139.401220	139.401220	4.982061	0.006940	2.830000	0.936752	0.407340	35.648480
19.032818	0.000423	0.024688	0.024691	70.511960	6.997213	1.572453	138.918127	138.918127	138.918127	4.948369	0.007371	2.830000	0.925441	0.404447	36.046598
19.306977	0.000435	0.025043	0.025047	70.720336	7.048499	1.565219	138.431420	138.431420	138.431420	4.914290	0.007830	2.830000	0.914019	0.401504	36.446431
19.585085	0.000448	0.025404	0.025408	70.927897	7.101431	1.557872	137.941133	137.941133	137.941133	4.879831	0.008318	2.830000	0.902489	0.398511	36.847884
19.867199	0.000461	0.025770	0.025774	71.134634	7.156068	1.550412	137.447302	137.447302	137.447302	4.845000	0.008838	2.830000	0.890856	0.395469	37.250852
20.153377	0.000474	0.026141	0.026145	71.340536	7.212473	1.542840	136.949966	136.949966	136.949966	4.809806	0.009391	2.830000	0.879124	0.392376	37.655231
20.443677	0.000488	0.026517	0.026521	71.545593	7.270711	1.535156	136.449162	136.449162	136.449162	4.774255	0.009979	2.830000	0.867295	0.389233	38.060908
20.738158	0.000502	0.026899	0.026903	71.749798	7.330852	1.527360	135.944932	135.944932	135.944932	4.738359	0.010605	2.830000	0.855376	0.386040	38.467766
21.036882	0.000517	0.027286	0.027291	71.953140	7.392967	1.519452	135.437317	135.437317	135.437317	4.702126	0.011272	2.830000	0.843370	0.382796	38.875684
21.339908	0.000532	0.027679	0.027684	72.155612	7.457132	1.511435	134.926361	134.926361	134.926361	4.665566	0.011981	2.830000	0.831282	0.379502	39.284535
21.647300	0.000547	0.028077	0.028083	72.357203	7.523427	1.503307	134.412108	134.412108	134.412108	4.628690	0.012737	2.830000	0.819117	0.376158	39.694184
21.959119	0.000563	0.028481	0.028487	72.557906	7.591933	1.495070	133.894604	133.894604	133.894604	4.591509	0.013542	2.830000	0.806879	0.372764	40.104493
22.275430	0.000580	0.028891	0.028897	72.757712	7.662739	1.486725	133.373897	133.373897	133.373897	4.554034	0.014399	2.830000	0.794575	0.369320	40.515318
22.596297	0.000596	0.029307	0.029313	72.956613	7.735937	1.478273	132.850034	132.850034	132.850034	4.516276	0.015312	2.830000	0.782210	0.365825	40.926506
22.921786	0.000614	0.029729	0.029736	73.154602	7.811622	1.469715	132.323066	132.323066	132.323066	4.478247	0.016285	2.830000	0.769789	0.362281	41.337899
23.251963	0.000631	0.030157	0.030164	73.351670	7.889896	1.461051	131.793043	131.793043	131.793043	4.439961	0.017321	2.830000	0.757318	0.358687	41.749333
23.586897	0.000650	0.030591	0.030598	73.547811	7.970866	1.452283	131.260017	131.260017	131.260017	4.401429	0.018426	2.830000	0.744803	0.355043	42.160633
23.926655	0.000669	0.031032	0.031039	73.743017	8.054644	1.443413	130.724039	130.724039	130.724039	4.362665	0.019604	2.830000	0.732250	0.351350	42.571620
24.271307	0.000688	0.031478	0.031486	73.937281	8.141349	1.434442	130.185165	130.185165	130.185165	4.323683	0.020859	2.830000	0.719665	0.347608	42.982105
24.620924	0.000708	0.031931	0.031939	74.130597	8.231107	1.425371	129.643448	129.643448	129.643448	4.284495	0.022197	2.830000	0.707055	0.343818	43.391889
24.975577	0.000728	0.032391	0.032399	74.322958	8.324049	1.416201	129.098944	129.098944	129.098944	4.245116	0.023625	2.830000	0.694425	0.339979	43.800767
25.335338	0.000750	0.032857	0.032866	74.514358	8.420316	1.406935	128.551708	128.551708	128.551708	4.205560	0.025147	2.830000	0.681784	0.336092	44.208522
25.700282	0.000771	0.033330	0.033339	74.704791	8.520056	1.397575	128.001797	128.001797	128.001797	4.165842	0.026771	2.830000	0.669137	0.332157	44.614926
26.070482	0.000794	0.033810	0.033819	74.894252	8.623424	1.388121	127.449268	127.449268	127.449268	4.125977	0.028503	2.830000	0.656490	0.328176	45.019741
26.446016	0.000817	0.034296	0.034306	75.082736	8.730588	1.378576	126.894178	126.894178	126.894178	4.085979	0.030352	2.830000	0.643853	0.324148	45.422718
26.826958	0.000840	0.034790	0.034800	75.270237	8.841724	1.368943	126.336587	126.336587	126.336587	4.045863	0.032324	2.830000	0.631230	0.320073	45.823594
27.213388	0.000865	0.035291	0.035301	75.456751	8.957018	1.359222	125.776552	125.776552	125.776552	4.005644	0.034430	2.830000	0.618630	0.315953	46.222093
27.605384	0.000890	0.035798	0.035810	75.642273	9.076669	1.349416	125.214132	125.214132	125.214132	3.965339	0.036678	2.830000	0.606059	0.311788	46.617925
28.003026	0.000916	0.036314	0.036325	75.826799	9.200889	1.339528	124.649385	124.649385	124.649385	3.924961	0.039078	2.830000	0.593525	0.307579	47.010782
28.406397	0.000942	0.036836	0.036848	76.010326	9.329903	1.329559	124.082371	124.082371	124.082371	3.884528	0.041641	2.830000	0.581035	0.303326	47.400343
28.815578	0.000970	0.037366	0.037379	76.192849	9.463951	1.319512	123.513149	123.513149	123.513149	3.844053	0.044379	2.830000	0.568596	0.299029	47.786266
29.230652	0.000998	0.037904	0.037917	76.374366	9.603288	1.309390	122.941777	122.941777	122.941777	3.803554	0.047303	2.830000	0.556216	0.294691	48.168189
29.651706	0.001027	0.038449	0.038463	76.554873	9.748188	1.299194	122.368315	122.368315	122.368315	3.763045	0.050427	2.830000	0.543903	0.290310	48.545732
30.078825	0.001056	0.039003	0.039017	76.734368	9.898944	1.288928	121.792822	121.792822	121.792822	3.722541	0.053764	2.830000	0.531663	0.285889	48.918488
30.512097	0.001087	0.039564	0.039579	76.912848	10.055868	1.278593	121.215354	121.215354	121.215354	3.682059	0.057331	2.830000	0.519505	0.281428	49.286026
30.951609	0.001119	0.040133	0.040149	77.090311	10.219296	1.268193	120.635971	120.635971	120.635971	3.641613	0.061143	2.830000	0.507435	0.276927	49.647890
31.397452	0.001151	0.040710	0.040727	77.266756	10.389587	1.257731	120.054730	120.054730	120.054730	3.601219	0.065217	2.830000	0.495461	0.272388	50.003590
31.849718	0.001184	0.041296	0.041313	77.442180	10.567127	1.247208	119.471688	119.471688	119.471688	3.560892	0.069572	2.830000	0.483591	0.267812	50.352607
32.308498	0.001219	0.041890	0.041908	77.616582	10.752332	1.236628	118.886901	118.886901	118.886901	3.520647	0.074228	2.830000	0.471832	0.263199	50.694383
32.773887	0.001254	0.042493	0.042511	77.789962	10.945649	1.225994	118.300426	118.300426	118.300426	3.480497	0.079205	2.830000	0.460191	0.258550	51.028322
33.245979	0.001291	0.043104	0.043123	77.962318	11.147561	1.215308	117.712317	117.712317	117.712317	3.440459	0.084527	2.830000	0.448675	0.253867	51.353784
33.724872	0.001328	0.043724	0.043744	78.133650	11.358586	1.204574	117.122629	117.122629	117.122629	3.400545	0.090217	2.830000	0.437293	0.249151	51.670081
34.210663	0.001367	0.044353	0.044374	78.303957	11.579287	1.193794	116.531414	116.531414	116.531414	3.360771	0.096301	2.830000	0.426051	0.244402	51.976474
34.703452	0.001406	0.044991	0.045013	78.473239	11.810274	1.182970	115.938727	115.938727	115.938727	3.321149	0.102806	2.830000	0.414955	0.239622	52.272162
35.203338	0.001447	0.045638	0.045661	78.641497	12.052204	1.172107	115.344617	115.344617	115.344617	3.281693	0.109761	2.830000	0.404015	0.234812	52.556281
35.710426	0.001489	0.046294	0.046318	78.808730	12.305794	1.161207	114.749137	114.749137	114.749137	3.242417	0.117197	2.830000	0.393235	0.229973	52.827896
36.224818	0.001532	0.046960	0.046985	78.974940	12.571820	1.150273	114.152334	114.152334	114.152334	3.203332	0.125146	2.830000	0.382623	0.225107	53.085988
36.746619	0.001576	0.047635	0.047661	79.140127	12.851129	1.139308	113.554257	113.554257	113.554257	3.164451	0.133643	2.830000	0.372187	0.220214	53.329451
37.275937	0.001622	0.048320	0.048347	79.304291	13.144642	1.128315	112.954954	112.954954	112.954954	3.125786	0.142724	2.830000	0.361932	0.215297	53.557078
37.812880	0.001669	0.049015	0.049043	79.467435	13.453365	1.117297	112.354470	112.354470	112.354470	3.087349	0.152427	2.830000	0.351864	0.210356	53.767551
38.357556	0.001718	0.049720	0.049749	79.629559	13.778398	1.106257	111.752850	111.752850	111.752850	3.049151	0.162793	2.830000	0.341992	0.205394	53.959423
38.910079	0.001767	0.050435	0.050466	79.790664	14.120942	1.095197	111.150138	111.150138	111.150138	3.011203	0.173862	2.830000	0.332320	0.200412	54.131107
39.470560	0.001819	0.051160	0.051192	79.950753	14.482318	1.084122	110.546374	110.546374	110.546374	2.973514	0.185678	2.830000	0.322855	0.195411	54.280855
40.039115	0.001871	0.051895	0.051929	80.109827	14.863973	1.073034	109.941600	109.941600	109.941600	2.936095	0.198288	2.830000	0.313604	0.190393	54.406740
40.615860	0.001926	0.052641	0.052676	80.267887	15.267496	1.061935	109.335855	109.335855	109.335855	2.898956	0.211736	2.830000	0.304571	0.185361	54.506628
41.200912	0.001982	0.053398	0.053435	80.424936	15.694640	1.050829	108.729176	108.729176	108.729176	2.862104	0.226071	2.830000	0.295763	0.180316	54.578152
41.794392	0.002039	0.054165	0.054204	80.580976	16.147333	1.039719	108.121600	108.121600	108.121600	2.825549	0.241340	2.830000	0.287185	0.175261	54.618682
42.396421	0.002098	0.054944	0.054984	80.736009	16.627704	1.028607	107.513162	107.513162	107.513162	2.789299	0.257594	2.830000	0.278843	0.170198	54.625285
43.007121	0.002159	0.055734	0.055775	80.890037	17.138104	1.017496	106.903895	106.903895	106.903895	2.753361	0.274879	2.830000	0.270742	0.165129	54.594681
43.626619	0.002222	0.056534	0.056578	81.043062	17.681131	1.006390	106.293831	106.293831	106.293831	2.717743	0.293245	2.830000	0.262888	0.160058	54.523195
44.255040	0.002286	0.057347	0.057392	81.195087	18.259657	0.995291	105.683000	105.683000	105.683000	2.682450	0.312737	2.830000	0.255284	0.154986	54.406698
44.892513	0.002352	0.058171	0.058218	81.346114	18.876863	0.984201	105.071432	105.071432	105.071432	2.647489	0.333399	2.830000	0.247937	0.149919	54.240537
45.539168	0.002421	0.059007	0.059056	81.496145	19.536260	0.973123	104.459155	104.459155	104.459155	2.612866	0.355273	2.830000	0.240850	0.144859	54.019452
46.195138	0.002491	0.059854	0.059906	81.645184	20.241733	0.962061	103.846193	103.846193	103.846193	2.578586	0.378393	2.830000	0.234029	0.139810	53.737490
46.860558	0.002563	0.060714	0.060768	81.793232	20.997562	0.951016	103.232572	103.232572	103.232572	2.544653	0.402791	2.830000	0.227477	0.134778	53.387888
47.535562	0.002637	0.061586	0.061643	81.940291	21.808458	0.939991	102.618315	102.618315	102.618315	2.511072	0.428489	2.830000	0.221199	0.129766	52.962948
48.220290	0.002714	0.062471	0.062530	82.086365	22.679577	0.928989	102.003444	102.003444	102.003444	2.477847	0.455502	2.830000	0.215199	0.124782	52.453894
48.914880	0.002792	0.063368	0.063430	82.231456	23.616527	0.918012	101.387979	101.387979	101.387979	2.444980	0.483834	2.830000	0.209480	0.119831	51.850694
49.619476	0.002873	0.064278	0.064342	82.375565	24.625354	0.907063	100.771939	100.771939	100.771939	2.412475	0.513476	2.830000	0.204047	0.114922	51.141874
50.334221	0.002957	0.065201	0.065268	82.518696	25.712477	0.896144	100.155343	100.155343	100.155343	2.380334	0.544406	2.830000	0.198903	0.110063	50.314298
51.059262	0.003042	0.066137	0.066207	82.660850	26.884575	0.885257	99.538206	99.538206	99.538206	2.348559	0.576585	2.830000	0.194051	0.105265	49.352933
51.794747	0.003130	0.067087	0.067160	82.802030	28.148370	0.874404	98.920544	98.920544	98.920544	2.317151	0.609959	2.830000	0.189494	0.100539	48.240599
52.540826	0.003221	0.068050	0.068126	82.942238	29.510279	0.863589	98.302372	98.302372	98.302372	2.286112	0.644454	2.830000	0.185236	0.095899	46.957729
53.297652	0.003315	0.069027	0.069106	83.081477	30.975854	0.852812	97.683701	97.683701	97.683701	2.255443	0.679975	2.830000	0.181280	0.091361	45.482162
54.065379	0.003411	0.070017	0.070100	83.219747	32.548940	0.842076	97.064543	97.064543	97.064543	2.225143	0.716408	2.830000	0.177627	0.086946	43.789030
54.844166	0.003509	0.071022	0.071109	83.357051	34.230432	0.831383	96.444910	96.444910	96.444910	2.195213	0.753616	2.830000	0.174281	0.082675	41.850820
55.634170	0.003611	0.072041	0.072132	83.493390	36.016525	0.820736	95.824811	95.824811	95.824811	2.165652	0.791442	2.830000	0.171244	0.078575	39.637749
56.435554	0.003716	0.073075	0.073169	83.628767	37.896332	0.810135	95.204255	95.204255	95.204255	2.136459	0.829709	2.830000	0.168518	0.074677	37.118633
57.248482	0.003823	0.074123	0.074222	83.763182	39.848870	0.799583	94.583249	94.583249	94.583249	2.107634	0.868221	2.830000	0.166105	0.071018	34.262519
58.073119	0.003934	0.075186	0.075289	83.896638	41.839556	0.789082	93.961801	93.961801	93.961801	2.079175	0.906766	2.830000	0.164007	0.067639	31.041359
58.909635	0.004048	0.076265	0.076372	84.029135	43.816763	0.778633	93.339916	93.339916	93.339916	2.051079	0.945119	2.830000	0.162226	0.064587	27.434004
59.758201	0.004166	0.077358	0.077471	84.160675	45.709543	0.768238	92.717601	92.717601	92.717601	2.023346	0.983044	2.830000	0.160764	0.061913	23.431570
60.618990	0.004286	0.078468	0.078585	84.291258	47.428234	0.757899	92.094860	92.094860	92.094860	1.995972	1.020302	2.830000	0.159622	0.059669	19.043807
61.492178	0.004410	0.079593	0.079715	84.420886	48.870023	0.747618	91.471696	91.471696	91.471696	1.968956	1.056652	2.830000	0.158800	0.057909	14.305331
