Freq (hertz)	Ra (norm)	Xa (norm)	Za (norm)	SPL (dB)	Ze (ohms)	Xd (mm) 	WPhase (deg)	UPhase (deg)	CPhase (deg)	Delay (msec)	Efficiency (%)	Ein (volts)	Pin (watts)	Iin (amps)	ZePhase (deg)

10.000000	0.000114	0.012825	0.012826	57.734454	5.396996	1.338661	168.941698	168.941698	168.941698	3.017873	0.000246	2.830000	1.465428	0.524366	9.063214
10.144045	0.000117	0.013010	0.013010	57.979107	5.399802	1.338077	168.785262	168.785262	168.785262	3.015585	0.000260	2.830000	1.464143	0.524093	9.190679
10.290166	0.000121	0.013197	0.013198	58.223653	5.402688	1.337477	168.626693	168.626693	168.626693	3.013234	0.000275	2.830000	1.462824	0.523813	9.319849
10.438391	0.000124	0.013387	0.013388	58.468089	5.405658	1.336860	168.465968	168.465968	168.465968	3.010820	0.000292	2.830000	1.461468	0.523526	9.450741
10.588751	0.000128	0.013580	0.013581	58.712413	5.408714	1.336227	168.303061	168.303061	168.303061	3.008340	0.000309	2.830000	1.460076	0.523230	9.583375
10.741277	0.000132	0.013776	0.013776	58.956621	5.411857	1.335575	168.137944	168.137944	168.137944	3.005792	0.000327	2.830000	1.458646	0.522926	9.717770
10.896000	0.000136	0.013974	0.013975	59.200710	5.415091	1.334906	167.970593	167.970593	167.970593	3.003176	0.000346	2.830000	1.457177	0.522614	9.853945
11.052951	0.000139	0.014175	0.014176	59.444677	5.418419	1.334219	167.800982	167.800982	167.800982	3.000489	0.000367	2.830000	1.455669	0.522293	9.991918
11.212164	0.000144	0.014379	0.014380	59.688518	5.421842	1.333512	167.629083	167.629083	167.629083	2.997730	0.000388	2.830000	1.454120	0.521963	10.131710
11.373670	0.000148	0.014586	0.014587	59.932230	5.425364	1.332786	167.454870	167.454870	167.454870	2.994897	0.000411	2.830000	1.452530	0.521624	10.273339
11.537502	0.000152	0.014797	0.014797	60.175810	5.428987	1.332041	167.278318	167.278318	167.278318	2.991987	0.000435	2.830000	1.450897	0.521276	10.416825
11.703695	0.000156	0.015010	0.015010	60.419255	5.432714	1.331275	167.099399	167.099399	167.099399	2.989000	0.000461	2.830000	1.449221	0.520918	10.562186
11.872281	0.000161	0.015226	0.015227	60.662560	5.436549	1.330488	166.918086	166.918086	166.918086	2.985933	0.000488	2.830000	1.447500	0.520551	10.709441
12.043295	0.000166	0.015445	0.015446	60.905721	5.440494	1.329680	166.734353	166.734353	166.734353	2.982785	0.000517	2.830000	1.445733	0.520173	10.858609
12.216773	0.000170	0.015668	0.015668	61.148736	5.444553	1.328849	166.548172	166.548172	166.548172	2.979552	0.000547	2.830000	1.443919	0.519786	11.009710
12.392750	0.000175	0.015893	0.015894	61.391600	5.448729	1.327996	166.359517	166.359517	166.359517	2.976234	0.000579	2.830000	1.442058	0.519387	11.162762
12.571262	0.000180	0.016122	0.016123	61.634308	5.453024	1.327120	166.168361	166.168361	166.168361	2.972829	0.000613	2.830000	1.440147	0.518978	11.317783
12.752345	0.000186	0.016354	0.016355	61.876858	5.457443	1.326221	165.974676	165.974676	165.974676	2.969334	0.000649	2.830000	1.438186	0.518558	11.474793
12.936037	0.000191	0.016590	0.016591	62.119244	5.461989	1.325297	165.778435	165.778435	165.778435	2.965746	0.000688	2.830000	1.436174	0.518126	11.633811
13.122374	0.000197	0.016829	0.016830	62.361463	5.466666	1.324348	165.579612	165.579612	165.579612	2.962065	0.000728	2.830000	1.434110	0.517683	11.794853
13.311396	0.000202	0.017071	0.017072	62.603510	5.471477	1.323374	165.378178	165.378178	165.378178	2.958288	0.000771	2.830000	1.431991	0.517228	11.957940
13.503140	0.000208	0.017317	0.017318	62.845381	5.476426	1.322374	165.174107	165.174107	165.174107	2.954412	0.000816	2.830000	1.429818	0.516760	12.123088
13.697647	0.000214	0.017566	0.017568	63.087070	5.481517	1.321346	164.967371	164.967371	164.967371	2.950435	0.000865	2.830000	1.427588	0.516280	12.290315
13.894955	0.000220	0.017819	0.017821	63.328574	5.486755	1.320292	164.757943	164.757943	164.757943	2.946356	0.000915	2.830000	1.425301	0.515788	12.459640
14.095105	0.000227	0.018076	0.018077	63.569887	5.492143	1.319209	164.545796	164.545796	164.545796	2.942171	0.000969	2.830000	1.422955	0.515282	12.631080
14.298139	0.000233	0.018336	0.018338	63.811005	5.497685	1.318098	164.330904	164.330904	164.330904	2.937879	0.001026	2.830000	1.420549	0.514762	12.804652
14.504097	0.000240	0.018600	0.018602	64.051922	5.503387	1.316957	164.113238	164.113238	164.113238	2.933477	0.001087	2.830000	1.418081	0.514229	12.980373
14.713021	0.000247	0.018868	0.018870	64.292634	5.509252	1.315787	163.892772	163.892772	163.892772	2.928962	0.001151	2.830000	1.415551	0.513681	13.158259
14.924955	0.000254	0.019140	0.019142	64.533134	5.515285	1.314585	163.669479	163.669479	163.669479	2.924333	0.001219	2.830000	1.412957	0.513119	13.338328
15.139942	0.000262	0.019415	0.019417	64.773419	5.521491	1.313352	163.443332	163.443332	163.443332	2.919586	0.001290	2.830000	1.410297	0.512543	13.520594
15.358026	0.000269	0.019695	0.019697	65.013481	5.527875	1.312086	163.214306	163.214306	163.214306	2.914720	0.001366	2.830000	1.407570	0.511951	13.705075
15.579251	0.000277	0.019979	0.019981	65.253316	5.534441	1.310788	162.982373	162.982373	162.982373	2.909731	0.001447	2.830000	1.404775	0.511343	13.891784
15.803663	0.000285	0.020266	0.020268	65.492918	5.541196	1.309455	162.747507	162.747507	162.747507	2.904617	0.001532	2.830000	1.401911	0.510720	14.080737
16.031307	0.000293	0.020558	0.020560	65.732282	5.548144	1.308088	162.509682	162.509682	162.509682	2.899376	0.001622	2.830000	1.398975	0.510080	14.271948
16.262231	0.000302	0.020854	0.020856	65.971400	5.555291	1.306686	162.268872	162.268872	162.268872	2.894005	0.001718	2.830000	1.395968	0.509424	14.465432
16.496481	0.000311	0.021155	0.021157	66.210267	5.562642	1.305247	162.025053	162.025053	162.025053	2.888501	0.001819	2.830000	1.392886	0.508751	14.661201
16.734105	0.000320	0.021459	0.021462	66.448877	5.570204	1.303772	161.778197	161.778197	161.778197	2.882862	0.001926	2.830000	1.389729	0.508060	14.859269
16.975152	0.000329	0.021768	0.021771	66.687223	5.577981	1.302259	161.528282	161.528282	161.528282	2.877085	0.002039	2.830000	1.386495	0.507352	15.059648
17.219671	0.000338	0.022082	0.022084	66.925300	5.585981	1.300707	161.275281	161.275281	161.275281	2.871167	0.002159	2.830000	1.383182	0.506625	15.262350
17.467712	0.000348	0.022400	0.022402	67.163100	5.594210	1.299115	161.019170	161.019170	161.019170	2.865106	0.002287	2.830000	1.379790	0.505880	15.467386
17.719326	0.000358	0.022722	0.022725	67.400616	5.602673	1.297484	160.759926	160.759926	160.759926	2.858899	0.002421	2.830000	1.376317	0.505116	15.674767
17.974565	0.000369	0.023049	0.023052	67.637842	5.611378	1.295811	160.497525	160.497525	160.497525	2.852543	0.002564	2.830000	1.372761	0.504332	15.884502
18.233480	0.000379	0.023381	0.023384	67.874771	5.620332	1.294096	160.231944	160.231944	160.231944	2.846036	0.002715	2.830000	1.369121	0.503529	16.096601
18.496125	0.000390	0.023718	0.023721	68.111396	5.629540	1.292338	159.963160	159.963160	159.963160	2.839374	0.002875	2.830000	1.365396	0.502705	16.311072
18.762553	0.000402	0.024059	0.024063	68.347709	5.639012	1.290537	159.691150	159.691150	159.691150	2.832556	0.003044	2.830000	1.361583	0.501861	16.527922
19.032818	0.000413	0.024406	0.024409	68.583704	5.648753	1.288690	159.415894	159.415894	159.415894	2.825577	0.003223	2.830000	1.357682	0.500996	16.747159
19.306977	0.000425	0.024757	0.024761	68.819372	5.658772	1.286798	159.137369	159.137369	159.137369	2.818437	0.003413	2.830000	1.353690	0.500109	16.968787
19.585085	0.000438	0.025114	0.025117	69.054706	5.669076	1.284860	158.855555	158.855555	158.855555	2.811131	0.003614	2.830000	1.349607	0.499200	17.192813
19.867199	0.000451	0.025475	0.025479	69.289699	5.679673	1.282874	158.570433	158.570433	158.570433	2.803658	0.003827	2.830000	1.345431	0.498268	17.419240
20.153377	0.000464	0.025842	0.025846	69.524342	5.690572	1.280839	158.281982	158.281982	158.281982	2.796014	0.004052	2.830000	1.341161	0.497314	17.648071
20.443677	0.000477	0.026214	0.026218	69.758627	5.701781	1.278755	157.990184	157.990184	157.990184	2.788197	0.004290	2.830000	1.336795	0.496336	17.879308
20.738158	0.000491	0.026591	0.026596	69.992546	5.713309	1.276621	157.695021	157.695021	157.695021	2.780205	0.004543	2.830000	1.332332	0.495335	18.112952
21.036882	0.000505	0.026974	0.026979	70.226092	5.725164	1.274436	157.396475	157.396475	157.396475	2.772034	0.004810	2.830000	1.327770	0.494309	18.349002
21.339908	0.000520	0.027363	0.027367	70.459255	5.737357	1.272199	157.094530	157.094530	157.094530	2.763681	0.005094	2.830000	1.323108	0.493259	18.587457
21.647300	0.000535	0.027756	0.027762	70.692028	5.749895	1.269908	156.789170	156.789170	156.789170	2.755146	0.005393	2.830000	1.318345	0.492183	18.828314
21.959119	0.000550	0.028156	0.028161	70.924400	5.762789	1.267563	156.480380	156.480380	156.480380	2.746424	0.005711	2.830000	1.313479	0.491082	19.071570
22.275430	0.000566	0.028561	0.028567	71.156365	5.776049	1.265164	156.168146	156.168146	156.168146	2.737514	0.006047	2.830000	1.308509	0.489954	19.317218
22.596297	0.000583	0.028973	0.028978	71.387912	5.789685	1.262708	155.852455	155.852455	155.852455	2.728413	0.006403	2.830000	1.303434	0.488800	19.565253
22.921786	0.000600	0.029390	0.029396	71.619034	5.803708	1.260195	155.533294	155.533294	155.533294	2.719119	0.006780	2.830000	1.298252	0.487619	19.815665
23.251963	0.000617	0.029813	0.029819	71.849720	5.818128	1.257625	155.210652	155.210652	155.210652	2.709629	0.007179	2.830000	1.292963	0.486411	20.068446
23.586897	0.000635	0.030242	0.030249	72.079961	5.832957	1.254995	154.884519	154.884519	154.884519	2.699941	0.007602	2.830000	1.287566	0.485174	20.323584
23.926655	0.000653	0.030677	0.030684	72.309749	5.848205	1.252306	154.554885	154.554885	154.554885	2.690053	0.008049	2.830000	1.282058	0.483909	20.581066
24.271307	0.000672	0.031119	0.031126	72.539073	5.863885	1.249556	154.221743	154.221743	154.221743	2.679963	0.008523	2.830000	1.276440	0.482615	20.840878
24.620924	0.000692	0.031567	0.031574	72.767925	5.880008	1.246744	153.885084	153.885084	153.885084	2.669669	0.009025	2.830000	1.270709	0.481292	21.103003
24.975577	0.000712	0.032021	0.032029	72.996295	5.896587	1.243870	153.544904	153.544904	153.544904	2.659169	0.009556	2.830000	1.264866	0.479939	21.367424
25.335338	0.000733	0.032482	0.032490	73.224172	5.913635	1.240932	153.201197	153.201197	153.201197	2.648461	0.010119	2.830000	1.258909	0.478555	21.634121
25.700282	0.000754	0.032949	0.032958	73.451547	5.931164	1.237929	152.853959	152.853959	152.853959	2.637544	0.010714	2.830000	1.252838	0.477141	21.903072
26.070482	0.000776	0.033424	0.033433	73.678411	5.949189	1.234861	152.503189	152.503189	152.503189	2.626415	0.011345	2.830000	1.246651	0.475695	22.174254
26.446016	0.000798	0.033905	0.033914	73.904752	5.967722	1.231727	152.148884	152.148884	152.148884	2.615074	0.012012	2.830000	1.240349	0.474218	22.447641
26.826958	0.000821	0.034393	0.034402	74.130562	5.986778	1.228526	151.791047	151.791047	151.791047	2.603518	0.012719	2.830000	1.233930	0.472708	22.723205
27.213388	0.000845	0.034888	0.034898	74.355829	6.006372	1.225257	151.429677	151.429677	151.429677	2.591747	0.013468	2.830000	1.227393	0.471166	23.000916
27.605384	0.000870	0.035390	0.035400	74.580545	6.026518	1.221918	151.064779	151.064779	151.064779	2.579760	0.014260	2.830000	1.220740	0.469591	23.280743
28.003026	0.000895	0.035899	0.035910	74.804697	6.047232	1.218511	150.696356	150.696356	150.696356	2.567555	0.015099	2.830000	1.213968	0.467983	23.562650
28.406397	0.000921	0.036416	0.036427	75.028277	6.068529	1.215032	150.324414	150.324414	150.324414	2.555131	0.015988	2.830000	1.207078	0.466340	23.846603
28.815578	0.000948	0.036940	0.036952	75.251273	6.090426	1.211483	149.948961	149.948961	149.948961	2.542489	0.016928	2.830000	1.200070	0.464664	24.132561
29.230652	0.000975	0.037471	0.037484	75.473675	6.112940	1.207861	149.570005	149.570005	149.570005	2.529626	0.017924	2.830000	1.192943	0.462952	24.420482
29.651706	0.001003	0.038010	0.038024	75.695474	6.136087	1.204167	149.187557	149.187557	149.187557	2.516544	0.018979	2.830000	1.185698	0.461206	24.710325
30.078825	0.001032	0.038557	0.038571	75.916657	6.159886	1.200399	148.801628	148.801628	148.801628	2.503241	0.020095	2.830000	1.178335	0.459424	25.002040
30.512097	0.001062	0.039112	0.039126	76.137215	6.184354	1.196557	148.412233	148.412233	148.412233	2.489718	0.021277	2.830000	1.170853	0.457606	25.295580
30.951609	0.001093	0.039675	0.039690	76.357138	6.209510	1.192640	148.019385	148.019385	148.019385	2.475975	0.022529	2.830000	1.163254	0.455753	25.590893
31.397452	0.001125	0.040246	0.040261	76.576414	6.235373	1.188647	147.623103	147.623103	147.623103	2.462012	0.023853	2.830000	1.155537	0.453862	25.887924
31.849718	0.001158	0.040825	0.040841	76.795033	6.261963	1.184579	147.223403	147.223403	147.223403	2.447829	0.025256	2.830000	1.147704	0.451935	26.186615
32.308498	0.001191	0.041412	0.041429	77.012985	6.289300	1.180434	146.820307	146.820307	146.820307	2.433428	0.026741	2.830000	1.139754	0.449971	26.486907
32.773887	0.001226	0.042008	0.042026	77.230258	6.317406	1.176211	146.413835	146.413835	146.413835	2.418808	0.028313	2.830000	1.131689	0.447969	26.788735
33.245979	0.001261	0.042612	0.042631	77.446843	6.346300	1.171912	146.004011	146.004011	146.004011	2.403973	0.029978	2.830000	1.123510	0.445929	27.092033
33.724872	0.001298	0.043225	0.043244	77.662730	6.376007	1.167534	145.590860	145.590860	145.590860	2.388921	0.031740	2.830000	1.115218	0.443851	27.396732
34.210663	0.001335	0.043847	0.043867	77.877906	6.406547	1.163078	145.174409	145.174409	145.174409	2.373656	0.033606	2.830000	1.106813	0.441736	27.702759
34.703452	0.001374	0.044477	0.044499	78.092364	6.437946	1.158542	144.754687	144.754687	144.754687	2.358179	0.035580	2.830000	1.098298	0.439581	28.010038
35.203338	0.001414	0.045117	0.045139	78.306091	6.470226	1.153928	144.331722	144.331722	144.331722	2.342491	0.037671	2.830000	1.089673	0.437388	28.318490
35.710426	0.001455	0.045766	0.045789	78.519077	6.503412	1.149235	143.905548	143.905548	143.905548	2.326596	0.039884	2.830000	1.080940	0.435156	28.628031
36.224818	0.001497	0.046424	0.046448	78.731313	6.537531	1.144462	143.476198	143.476198	143.476198	2.310495	0.042227	2.830000	1.072102	0.432885	28.938577
36.746619	0.001541	0.047092	0.047117	78.942789	6.572607	1.139609	143.043706	143.043706	143.043706	2.294191	0.044707	2.830000	1.063160	0.430575	29.250037
37.275937	0.001585	0.047769	0.047795	79.153494	6.608669	1.134676	142.608111	142.608111	142.608111	2.277687	0.047332	2.830000	1.054115	0.428225	29.562317
37.812880	0.001631	0.048456	0.048483	79.363419	6.645744	1.129664	142.169451	142.169451	142.169451	2.260987	0.050111	2.830000	1.044971	0.425836	29.875321
38.357556	0.001679	0.049153	0.049181	79.572554	6.683861	1.124571	141.727766	141.727766	141.727766	2.244092	0.053052	2.830000	1.035729	0.423408	30.188948
38.910079	0.001727	0.049859	0.049889	79.780889	6.723049	1.119399	141.283098	141.283098	141.283098	2.227008	0.056166	2.830000	1.026392	0.420940	30.503093
39.470560	0.001777	0.050576	0.050607	79.988415	6.763339	1.114147	140.835490	140.835490	140.835490	2.209737	0.059461	2.830000	1.016962	0.418432	30.817648
40.039115	0.001829	0.051303	0.051336	80.195122	6.804762	1.108815	140.384989	140.384989	140.384989	2.192285	0.062949	2.830000	1.007443	0.415885	31.132500
40.615860	0.001882	0.052041	0.052075	80.401002	6.847351	1.103404	139.931641	139.931641	139.931641	2.174654	0.066640	2.830000	0.997837	0.413298	31.447532
41.200912	0.001937	0.052789	0.052824	80.606044	6.891139	1.097914	139.475494	139.475494	139.475494	2.156850	0.070547	2.830000	0.988147	0.410672	31.762624
41.794392	0.001993	0.053548	0.053585	80.810242	6.936161	1.092345	139.016599	139.016599	139.016599	2.138878	0.074681	2.830000	0.978376	0.408007	32.077649
42.396421	0.002051	0.054317	0.054356	81.013585	6.982451	1.086698	138.555006	138.555006	138.555006	2.120742	0.079057	2.830000	0.968528	0.405302	32.392480
43.007121	0.002110	0.055098	0.055138	81.216066	7.030047	1.080973	138.090770	138.090770	138.090770	2.102447	0.083688	2.830000	0.958606	0.402558	32.706981
43.626619	0.002171	0.055890	0.055932	81.417675	7.078987	1.075171	137.623943	137.623943	137.623943	2.083999	0.088587	2.830000	0.948614	0.399775	33.021014
44.255040	0.002234	0.056693	0.056737	81.618406	7.129309	1.069292	137.154583	137.154583	137.154583	2.065404	0.093772	2.830000	0.938556	0.396953	33.334435
44.892513	0.002299	0.057508	0.057554	81.818251	7.181055	1.063337	136.682745	136.682745	136.682745	2.046667	0.099259	2.830000	0.928434	0.394093	33.647096
45.539168	0.002366	0.058334	0.058382	82.017201	7.234265	1.057306	136.208489	136.208489	136.208489	2.027794	0.105063	2.830000	0.918254	0.391194	33.958845
46.195138	0.002434	0.059172	0.059222	82.215249	7.288983	1.051201	135.731873	135.731873	135.731873	2.008792	0.111205	2.830000	0.908019	0.388257	34.269523
46.860558	0.002505	0.060022	0.060074	82.412389	7.345254	1.045022	135.252959	135.252959	135.252959	1.989666	0.117702	2.830000	0.897734	0.385283	34.578967
47.535562	0.002577	0.060884	0.060939	82.608613	7.403123	1.038771	134.771809	134.771809	134.771809	1.970424	0.124576	2.830000	0.887403	0.382271	34.887008
48.220290	0.002652	0.061759	0.061816	82.803915	7.462638	1.032447	134.288484	134.288484	134.288484	1.951071	0.131847	2.830000	0.877030	0.379222	35.193471
48.914880	0.002729	0.062646	0.062705	82.998289	7.523848	1.026053	133.803050	133.803050	133.803050	1.931616	0.139539	2.830000	0.866620	0.376137	35.498177
49.619476	0.002808	0.063546	0.063608	83.191729	7.586804	1.019589	133.315571	133.315571	133.315571	1.912064	0.147674	2.830000	0.856178	0.373016	35.800941
50.334221	0.002889	0.064458	0.064523	83.384228	7.651559	1.013056	132.826112	132.826112	132.826112	1.892424	0.156278	2.830000	0.845707	0.369859	36.101569
51.059262	0.002973	0.065384	0.065451	83.575781	7.718168	1.006457	132.334740	132.334740	132.334740	1.872701	0.165377	2.830000	0.835214	0.366667	36.399865
51.794747	0.003059	0.066322	0.066393	83.766384	7.786687	0.999791	131.841522	131.841522	131.841522	1.852904	0.174999	2.830000	0.824703	0.363441	36.695625
52.540826	0.003148	0.067275	0.067348	83.956031	7.857174	0.993060	131.346526	131.346526	131.346526	1.833041	0.185173	2.830000	0.814179	0.360180	36.988636
53.297652	0.003239	0.068240	0.068317	84.144717	7.929690	0.986266	130.849820	130.849820	130.849820	1.813118	0.195930	2.830000	0.803647	0.356887	37.278680
54.065379	0.003333	0.069220	0.069300	84.332439	8.004299	0.979410	130.351473	130.351473	130.351473	1.793143	0.207302	2.830000	0.793112	0.353560	37.565534
54.844166	0.003430	0.070213	0.070297	84.519191	8.081064	0.972494	129.851554	129.851554	129.851554	1.773124	0.219323	2.830000	0.782580	0.350201	37.848964
55.634170	0.003529	0.071221	0.071308	84.704972	8.160054	0.965519	129.350133	129.350133	129.350133	1.753069	0.232030	2.830000	0.772054	0.346811	38.128729
56.435554	0.003631	0.072243	0.072334	84.889776	8.241338	0.958486	128.847279	128.847279	128.847279	1.732986	0.245459	2.830000	0.761542	0.343391	38.404581
57.248482	0.003737	0.073279	0.073375	85.073601	8.324990	0.951399	128.343063	128.343063	128.343063	1.712882	0.259649	2.830000	0.751048	0.339940	38.676263
58.073119	0.003845	0.074331	0.074430	85.256444	8.411084	0.944257	127.837553	127.837553	127.837553	1.692765	0.274643	2.830000	0.740576	0.336461	38.943510
58.909635	0.003956	0.075397	0.075501	85.438303	8.499699	0.937063	127.330822	127.330822	127.330822	1.672643	0.290484	2.830000	0.730134	0.332953	39.206046
59.758201	0.004071	0.076478	0.076586	85.619175	8.590916	0.929819	126.822937	126.822937	126.822937	1.652524	0.307217	2.830000	0.719725	0.329418	39.463586
60.618990	0.004189	0.077575	0.077688	85.799059	8.684819	0.922526	126.313970	126.313970	126.313970	1.632416	0.324890	2.830000	0.709356	0.325856	39.715836
61.492178	0.004310	0.078687	0.078805	85.977952	8.781495	0.915187	125.803990	125.803990	125.803990	1.612326	0.343552	2.830000	0.699032	0.322269	39.962490
