Freq (hertz)	Ra (norm)	Xa (norm)	Za (norm)	SPL (dB)	Ze (ohms)	Xd (mm) 	WPhase (deg)	UPhase (deg)	CPhase (deg)	Delay (msec)	Efficiency (%)	Ein (volts)	Pin (watts)	Iin (amps)	ZePhase (deg)

10.000000	0.000117	0.012973	0.012974	59.880135	2.663331	1.674829	167.387821	167.387821	167.387821	3.513427	0.000200	2.830000	2.949116	1.062579	11.269778
10.144045	0.000120	0.013160	0.013161	60.126941	2.665212	1.674514	167.205617	167.205617	167.205617	3.513834	0.000212	2.830000	2.945361	1.061829	11.431902
10.290166	0.000124	0.013350	0.013350	60.373697	2.667150	1.674189	167.020767	167.020767	167.020767	3.514252	0.000225	2.830000	2.941500	1.061058	11.596349
10.438391	0.000127	0.013542	0.013543	60.620403	2.669148	1.673854	166.833231	166.833231	166.833231	3.514679	0.000238	2.830000	2.937531	1.060264	11.763153
10.588751	0.000131	0.013737	0.013738	60.867057	2.671206	1.673510	166.642971	166.642971	166.642971	3.515116	0.000252	2.830000	2.933449	1.059447	11.932346
10.741277	0.000135	0.013935	0.013935	61.113656	2.673327	1.673155	166.449946	166.449946	166.449946	3.515564	0.000267	2.830000	2.929253	1.058606	12.103963
10.896000	0.000139	0.014136	0.014136	61.360200	2.675513	1.672789	166.254115	166.254115	166.254115	3.516022	0.000284	2.830000	2.924940	1.057741	12.278037
11.052951	0.000143	0.014339	0.014340	61.606687	2.677766	1.672413	166.055438	166.055438	166.055438	3.516490	0.000301	2.830000	2.920505	1.056851	12.454603
11.212164	0.000147	0.014546	0.014546	61.853114	2.680087	1.672025	165.853871	165.853871	165.853871	3.516969	0.000319	2.830000	2.915946	1.055936	12.633696
11.373670	0.000151	0.014755	0.014756	62.099481	2.682481	1.671626	165.649373	165.649373	165.649373	3.517458	0.000338	2.830000	2.911260	1.054994	12.815351
11.537502	0.000155	0.014968	0.014968	62.345784	2.684947	1.671215	165.441900	165.441900	165.441900	3.517959	0.000358	2.830000	2.906442	1.054024	12.999604
11.703695	0.000160	0.015183	0.015184	62.592023	2.687490	1.670791	165.231408	165.231408	165.231408	3.518470	0.000380	2.830000	2.901490	1.053027	13.186491
11.872281	0.000165	0.015402	0.015403	62.838195	2.690111	1.670355	165.017852	165.017852	165.017852	3.518993	0.000402	2.830000	2.896400	1.052001	13.376049
12.043295	0.000169	0.015624	0.015625	63.084298	2.692814	1.669905	164.801188	164.801188	164.801188	3.519526	0.000427	2.830000	2.891169	1.050945	13.568316
12.216773	0.000174	0.015849	0.015850	63.330329	2.695600	1.669442	164.581369	164.581369	164.581369	3.520071	0.000452	2.830000	2.885791	1.049859	13.763328
12.392750	0.000179	0.016077	0.016078	63.576287	2.698472	1.668965	164.358349	164.358349	164.358349	3.520628	0.000480	2.830000	2.880265	1.048742	13.961125
12.571262	0.000185	0.016308	0.016309	63.822170	2.701434	1.668474	164.132081	164.132081	164.132081	3.521196	0.000509	2.830000	2.874585	1.047592	14.161744
12.752345	0.000190	0.016543	0.016544	64.067974	2.704488	1.667968	163.902515	163.902515	163.902515	3.521775	0.000539	2.830000	2.868748	1.046409	14.365224
12.936037	0.000195	0.016782	0.016783	64.313698	2.707637	1.667447	163.669604	163.669604	163.669604	3.522366	0.000572	2.830000	2.862749	1.045192	14.571606
13.122374	0.000201	0.017023	0.017024	64.559338	2.710885	1.666909	163.433299	163.433299	163.433299	3.522969	0.000606	2.830000	2.856585	1.043940	14.780928
13.311396	0.000207	0.017268	0.017270	64.804893	2.714234	1.666356	163.193547	163.193547	163.193547	3.523583	0.000643	2.830000	2.850251	1.042651	14.993232
13.503140	0.000213	0.017517	0.017518	65.050359	2.717689	1.665786	162.950300	162.950300	162.950300	3.524209	0.000682	2.830000	2.843742	1.041326	15.208558
13.697647	0.000219	0.017769	0.017771	65.295733	2.721253	1.665198	162.703504	162.703504	162.703504	3.524847	0.000723	2.830000	2.837055	1.039962	15.426947
13.894955	0.000226	0.018025	0.018027	65.541014	2.724929	1.664593	162.453108	162.453108	162.453108	3.525496	0.000767	2.830000	2.830184	1.038559	15.648441
14.095105	0.000232	0.018285	0.018286	65.786197	2.728721	1.663970	162.199058	162.199058	162.199058	3.526157	0.000814	2.830000	2.823125	1.037116	15.873082
14.298139	0.000239	0.018548	0.018550	66.031279	2.732633	1.663327	161.941300	161.941300	161.941300	3.526829	0.000863	2.830000	2.815873	1.035631	16.100913
14.504097	0.000246	0.018815	0.018817	66.276258	2.736670	1.662665	161.679778	161.679778	161.679778	3.527512	0.000916	2.830000	2.808424	1.034104	16.331977
14.713021	0.000253	0.019086	0.019088	66.521129	2.740835	1.661982	161.414437	161.414437	161.414437	3.528207	0.000972	2.830000	2.800772	1.032532	16.566317
14.924955	0.000260	0.019361	0.019363	66.765890	2.745133	1.661279	161.145221	161.145221	161.145221	3.528913	0.001031	2.830000	2.792912	1.030915	16.803977
15.139942	0.000268	0.019640	0.019642	67.010537	2.749569	1.660555	160.872072	160.872072	160.872072	3.529629	0.001094	2.830000	2.784839	1.029252	17.045001
15.358026	0.000275	0.019923	0.019925	67.255066	2.754147	1.659808	160.594932	160.594932	160.594932	3.530356	0.001161	2.830000	2.776548	1.027541	17.289434
15.579251	0.000283	0.020210	0.020212	67.499474	2.758873	1.659038	160.313741	160.313741	160.313741	3.531094	0.001232	2.830000	2.768033	1.025781	17.537320
15.803663	0.000292	0.020501	0.020503	67.743755	2.763752	1.658245	160.028440	160.028440	160.028440	3.531842	0.001307	2.830000	2.759290	1.023970	17.788706
16.031307	0.000300	0.020796	0.020798	67.987907	2.768788	1.657428	159.738968	159.738968	159.738968	3.532599	0.001387	2.830000	2.750311	1.022108	18.043637
16.262231	0.000309	0.021095	0.021098	68.231925	2.773988	1.656585	159.445262	159.445262	159.445262	3.533366	0.001472	2.830000	2.741093	1.020192	18.302159
16.496481	0.000318	0.021399	0.021401	68.475804	2.779358	1.655717	159.147261	159.147261	159.147261	3.534141	0.001563	2.830000	2.731628	1.018221	18.564318
16.734105	0.000327	0.021707	0.021710	68.719541	2.784903	1.654821	158.844901	158.844901	158.844901	3.534925	0.001659	2.830000	2.721911	1.016193	18.830161
16.975152	0.000337	0.022020	0.022022	68.963129	2.790630	1.653899	158.538117	158.538117	158.538117	3.535717	0.001761	2.830000	2.711937	1.014108	19.099735
17.219671	0.000346	0.022337	0.022340	69.206565	2.796546	1.652947	158.226843	158.226843	158.226843	3.536516	0.001869	2.830000	2.701699	1.011963	19.373088
17.467712	0.000356	0.022658	0.022661	69.449843	2.802657	1.651967	157.911015	157.911015	157.911015	3.537321	0.001985	2.830000	2.691190	1.009756	19.650266
17.719326	0.000367	0.022985	0.022988	69.692959	2.808971	1.650956	157.590563	157.590563	157.590563	3.538132	0.002108	2.830000	2.680406	1.007486	19.931317
17.974565	0.000377	0.023316	0.023319	69.935906	2.815494	1.649914	157.265421	157.265421	157.265421	3.538948	0.002238	2.830000	2.669339	1.005152	20.216290
18.233480	0.000388	0.023651	0.023655	70.178679	2.822236	1.648839	156.935520	156.935520	156.935520	3.539769	0.002377	2.830000	2.657984	1.002751	20.505232
18.496125	0.000400	0.023992	0.023995	70.421272	2.829204	1.647731	156.600788	156.600788	156.600788	3.540592	0.002525	2.830000	2.646333	1.000281	20.798191
18.762553	0.000411	0.024337	0.024341	70.663679	2.836406	1.646589	156.261156	156.261156	156.261156	3.541418	0.002682	2.830000	2.634380	0.997742	21.095216
19.032818	0.000423	0.024688	0.024691	70.905894	2.843852	1.645411	155.916551	155.916551	155.916551	3.542244	0.002849	2.830000	2.622120	0.995129	21.396354
19.306977	0.000435	0.025043	0.025047	71.147911	2.851550	1.644197	155.566900	155.566900	155.566900	3.543070	0.003026	2.830000	2.609544	0.992443	21.701653
19.585085	0.000448	0.025404	0.025408	71.389722	2.859511	1.642945	155.212131	155.212131	155.212131	3.543895	0.003216	2.830000	2.596647	0.989680	22.011162
19.867199	0.000461	0.025770	0.025774	71.631321	2.867744	1.641654	154.852167	154.852167	154.852167	3.544716	0.003417	2.830000	2.583421	0.986839	22.324928
20.153377	0.000474	0.026141	0.026145	71.872700	2.876260	1.640322	154.486934	154.486934	154.486934	3.545533	0.003631	2.830000	2.569860	0.983917	22.642999
20.443677	0.000488	0.026517	0.026521	72.113853	2.885071	1.638949	154.116355	154.116355	154.116355	3.546344	0.003859	2.830000	2.555958	0.980912	22.965422
20.738158	0.000502	0.026899	0.026903	72.354770	2.894187	1.637532	153.740353	153.740353	153.740353	3.547146	0.004102	2.830000	2.541706	0.977822	23.292245
21.036882	0.000517	0.027286	0.027291	72.595446	2.903622	1.636072	153.358848	153.358848	153.358848	3.547938	0.004361	2.830000	2.527100	0.974645	23.623513
21.339908	0.000532	0.027679	0.027684	72.835870	2.913387	1.634565	152.971763	152.971763	152.971763	3.548718	0.004637	2.830000	2.512131	0.971378	23.959273
21.647300	0.000547	0.028077	0.028083	73.076034	2.923496	1.633012	152.579016	152.579016	152.579016	3.549484	0.004931	2.830000	2.496792	0.968019	24.299570
21.959119	0.000563	0.028481	0.028487	73.315930	2.933963	1.631409	152.180526	152.180526	152.180526	3.550233	0.005244	2.830000	2.481078	0.964566	24.644449
22.275430	0.000580	0.028891	0.028897	73.555549	2.944803	1.629756	151.776213	151.776213	151.776213	3.550962	0.005577	2.830000	2.464982	0.961015	24.993953
22.596297	0.000596	0.029307	0.029313	73.794880	2.956031	1.628051	151.365992	151.365992	151.365992	3.551669	0.005933	2.830000	2.448495	0.957365	25.348126
22.921786	0.000614	0.029729	0.029736	74.033913	2.967664	1.626292	150.949781	150.949781	150.949781	3.552352	0.006312	2.830000	2.431613	0.953612	25.707008
23.251963	0.000631	0.030157	0.030164	74.272640	2.979718	1.624478	150.527496	150.527496	150.527496	3.553006	0.006717	2.830000	2.414328	0.949754	26.070642
23.586897	0.000650	0.030591	0.030598	74.511048	2.992211	1.622606	150.099050	150.099050	150.099050	3.553628	0.007148	2.830000	2.396635	0.945789	26.439065
23.926655	0.000669	0.031032	0.031039	74.749126	3.005162	1.620676	149.664359	149.664359	149.664359	3.554216	0.007609	2.830000	2.378525	0.941713	26.812315
24.271307	0.000688	0.031478	0.031486	74.986865	3.018591	1.618684	149.223336	149.223336	149.223336	3.554764	0.008100	2.830000	2.359995	0.937524	27.190429
24.620924	0.000708	0.031931	0.031939	75.224250	3.032518	1.616629	148.775893	148.775893	148.775893	3.555270	0.008624	2.830000	2.341036	0.933218	27.573439
24.975577	0.000728	0.032391	0.032399	75.461271	3.046966	1.614510	148.321944	148.321944	148.321944	3.555728	0.009184	2.830000	2.321644	0.928793	27.961378
25.335338	0.000750	0.032857	0.032866	75.697914	3.061958	1.612323	147.861400	147.861400	147.861400	3.556135	0.009782	2.830000	2.301813	0.924245	28.354275
25.700282	0.000771	0.033330	0.033339	75.934167	3.077518	1.610066	147.394172	147.394172	147.394172	3.556486	0.010420	2.830000	2.281538	0.919572	28.752157
26.070482	0.000794	0.033810	0.033819	76.170015	3.093671	1.607739	146.920171	146.920171	146.920171	3.556775	0.011103	2.830000	2.260812	0.914771	29.155048
26.446016	0.000817	0.034296	0.034306	76.405445	3.110445	1.605337	146.439308	146.439308	146.439308	3.556997	0.011832	2.830000	2.239632	0.909838	29.562967
26.826958	0.000840	0.034790	0.034800	76.640441	3.127869	1.602860	145.951493	145.951493	145.951493	3.557147	0.012612	2.830000	2.217993	0.904769	29.975933
27.213388	0.000865	0.035291	0.035301	76.874990	3.145973	1.600303	145.456635	145.456635	145.456635	3.557219	0.013446	2.830000	2.195891	0.899563	30.393958
27.605384	0.000890	0.035798	0.035810	77.109074	3.164788	1.597666	144.954645	144.954645	144.954645	3.557205	0.014338	2.830000	2.173322	0.894215	30.817052
28.003026	0.000916	0.036314	0.036325	77.342679	3.184350	1.594945	144.445433	144.445433	144.445433	3.557100	0.015292	2.830000	2.150282	0.888721	31.245219
28.406397	0.000942	0.036836	0.036848	77.575786	3.204693	1.592138	143.928908	143.928908	143.928908	3.556896	0.016314	2.830000	2.126769	0.883080	31.678458
28.815578	0.000970	0.037366	0.037379	77.808379	3.225857	1.589241	143.404980	143.404980	143.404980	3.556587	0.017408	2.830000	2.102780	0.877286	32.116763
29.230652	0.000998	0.037904	0.037917	78.040439	3.247882	1.586253	142.873561	142.873561	142.873561	3.556164	0.018579	2.830000	2.078314	0.871337	32.560121
29.651706	0.001027	0.038449	0.038463	78.271949	3.270810	1.583171	142.334559	142.334559	142.334559	3.555618	0.019835	2.830000	2.053369	0.865229	33.008515
30.078825	0.001056	0.039003	0.039017	78.502888	3.294687	1.579991	141.787887	141.787887	141.787887	3.554943	0.021180	2.830000	2.027945	0.858959	33.461917
30.512097	0.001087	0.039564	0.039579	78.733237	3.319563	1.576710	141.233457	141.233457	141.233457	3.554128	0.022623	2.830000	2.002042	0.852522	33.920294
30.951609	0.001119	0.040133	0.040149	78.962976	3.345488	1.573326	140.671182	140.671182	140.671182	3.553164	0.024170	2.830000	1.975660	0.845915	34.383603
31.397452	0.001151	0.040710	0.040727	79.192082	3.372518	1.569835	140.100974	140.100974	140.100974	3.552041	0.025831	2.830000	1.948801	0.839136	34.851792
31.849718	0.001184	0.041296	0.041313	79.420535	3.400712	1.566234	139.522749	139.522749	139.522749	3.550749	0.027613	2.830000	1.921468	0.832179	35.324799
32.308498	0.001219	0.041890	0.041908	79.648312	3.430132	1.562520	138.936423	138.936423	138.936423	3.549277	0.029527	2.830000	1.893665	0.825041	35.802549
32.773887	0.001254	0.042493	0.042511	79.875388	3.460846	1.558690	138.341914	138.341914	138.341914	3.547614	0.031584	2.830000	1.865395	0.817719	36.284957
33.245979	0.001291	0.043104	0.043123	80.101741	3.492925	1.554739	137.739141	137.739141	137.739141	3.545748	0.033794	2.830000	1.836664	0.810209	36.771925
33.724872	0.001328	0.043724	0.043744	80.327344	3.526446	1.550666	137.128026	137.128026	137.128026	3.543667	0.036171	2.830000	1.807478	0.802508	37.263337
34.210663	0.001367	0.044353	0.044374	80.552173	3.561491	1.546465	136.508491	136.508491	136.508491	3.541358	0.038727	2.830000	1.777845	0.794611	37.759065
34.703452	0.001406	0.044991	0.045013	80.776202	3.598148	1.542134	135.880464	135.880464	135.880464	3.538808	0.041479	2.830000	1.747774	0.786516	38.258961
35.203338	0.001447	0.045638	0.045661	80.999402	3.636513	1.537668	135.243871	135.243871	135.243871	3.536003	0.044442	2.830000	1.717275	0.778218	38.762859
35.710426	0.001489	0.046294	0.046318	81.221746	3.676687	1.533065	134.598645	134.598645	134.598645	3.532929	0.047634	2.830000	1.686359	0.769715	39.270571
36.224818	0.001532	0.046960	0.046985	81.443205	3.718781	1.528320	133.944720	133.944720	133.944720	3.529571	0.051075	2.830000	1.655039	0.761002	39.781888
36.746619	0.001576	0.047635	0.047661	81.663750	3.762911	1.523429	133.282035	133.282035	133.282035	3.525914	0.054785	2.830000	1.623329	0.752077	40.296574
37.275937	0.001622	0.048320	0.048347	81.883350	3.809207	1.518390	132.610530	132.610530	132.610530	3.521943	0.058788	2.830000	1.591246	0.742937	40.814366
37.812880	0.001669	0.049015	0.049043	82.101973	3.857806	1.513197	131.930152	131.930152	131.930152	3.517641	0.063110	2.830000	1.558806	0.733578	41.334972
38.357556	0.001718	0.049720	0.049749	82.319588	3.908857	1.507847	131.240851	131.240851	131.240851	3.512992	0.067778	2.830000	1.526029	0.723997	41.858064
38.910079	0.001767	0.050435	0.050466	82.536162	3.962523	1.502337	130.542582	130.542582	130.542582	3.507978	0.072823	2.830000	1.492935	0.714191	42.383281
39.470560	0.001819	0.051160	0.051192	82.751661	4.018979	1.496662	129.835304	129.835304	129.835304	3.502583	0.078278	2.830000	1.459547	0.704159	42.910218
40.039115	0.001871	0.051895	0.051929	82.966051	4.078417	1.490818	129.118984	129.118984	129.118984	3.496788	0.084181	2.830000	1.425890	0.693897	43.438428
40.615860	0.001926	0.052641	0.052676	83.179296	4.141044	1.484801	128.393591	128.393591	128.393591	3.490576	0.090571	2.830000	1.391988	0.683403	43.967412
41.200912	0.001982	0.053398	0.053435	83.391360	4.207088	1.478609	127.659104	127.659104	127.659104	3.483927	0.097493	2.830000	1.357871	0.672674	44.496619
41.794392	0.002039	0.054165	0.054204	83.602206	4.276796	1.472236	126.915505	126.915505	126.915505	3.476823	0.104995	2.830000	1.323569	0.661710	45.025434
42.396421	0.002098	0.054944	0.054984	83.811797	4.350441	1.465679	126.162786	126.162786	126.162786	3.469244	0.113131	2.830000	1.289113	0.650509	45.553177
43.007121	0.002159	0.055734	0.055775	84.020095	4.428320	1.458934	125.400945	125.400945	125.400945	3.461173	0.121961	2.830000	1.254537	0.639069	46.079090
43.626619	0.002222	0.056534	0.056578	84.227060	4.510761	1.451999	124.629987	124.629987	124.629987	3.452588	0.131548	2.830000	1.219878	0.627389	46.602332
44.255040	0.002286	0.057347	0.057392	84.432652	4.598124	1.444868	123.849926	123.849926	123.849926	3.443471	0.141964	2.830000	1.185174	0.615468	47.121967
44.892513	0.002352	0.058171	0.058218	84.636832	4.690808	1.437539	123.060784	123.060784	123.060784	3.433802	0.153287	2.830000	1.150464	0.603308	47.636950
45.539168	0.002421	0.059007	0.059056	84.839559	4.789252	1.430008	122.262592	122.262592	122.262592	3.423561	0.165603	2.830000	1.115791	0.590907	48.146117
46.195138	0.002491	0.059854	0.059906	85.040791	4.893944	1.422273	121.455390	121.455390	121.455390	3.412728	0.179006	2.830000	1.081199	0.578266	48.648170
46.860558	0.002563	0.060714	0.060768	85.240487	5.005428	1.414329	120.639229	120.639229	120.639229	3.401286	0.193601	2.830000	1.046734	0.565386	49.141651
47.535562	0.002637	0.061586	0.061643	85.438603	5.124307	1.406175	119.814168	119.814168	119.814168	3.389214	0.209500	2.830000	1.012444	0.552270	49.624931
48.220290	0.002714	0.062471	0.062530	85.635098	5.251256	1.397807	118.980278	118.980278	118.980278	3.376494	0.226828	2.830000	0.978379	0.538919	50.096175
48.914880	0.002792	0.063368	0.063430	85.829929	5.387032	1.389224	118.137640	118.137640	118.137640	3.363107	0.245722	2.830000	0.944590	0.525336	50.553319
49.619476	0.002873	0.064278	0.064342	86.023051	5.532484	1.380422	117.286347	117.286347	117.286347	3.349036	0.266329	2.830000	0.911130	0.511524	50.994033
50.334221	0.002957	0.065201	0.065268	86.214423	5.688569	1.371400	116.426501	116.426501	116.426501	3.334264	0.288812	2.830000	0.878055	0.497489	51.415675
51.059262	0.003042	0.066137	0.066207	86.404000	5.856368	1.362156	115.558219	115.558219	115.558219	3.318775	0.313344	2.830000	0.845421	0.483235	51.815246
51.794747	0.003130	0.067087	0.067160	86.591739	6.037109	1.352688	114.681629	114.681629	114.681629	3.302552	0.340115	2.830000	0.813285	0.468767	52.189326
52.540826	0.003221	0.068050	0.068126	86.777598	6.232185	1.342997	113.796868	113.796868	113.796868	3.285582	0.369327	2.830000	0.781706	0.454094	52.534005
53.297652	0.003315	0.069027	0.069106	86.961531	6.443187	1.333079	112.904091	112.904091	112.904091	3.267850	0.401195	2.830000	0.750744	0.439224	52.844787
54.065379	0.003411	0.070017	0.070100	87.143498	6.671937	1.322936	112.003461	112.003461	112.003461	3.249345	0.435948	2.830000	0.720460	0.424165	53.116491
54.844166	0.003509	0.071022	0.071109	87.323456	6.920528	1.312568	111.095156	111.095156	111.095156	3.230056	0.473823	2.830000	0.690914	0.408928	53.343110
55.634170	0.003611	0.072041	0.072132	87.501363	7.191370	1.301973	110.179367	110.179367	110.179367	3.209972	0.515066	2.830000	0.662168	0.393527	53.517650
56.435554	0.003716	0.073075	0.073169	87.677177	7.487254	1.291154	109.256296	109.256296	109.256296	3.189085	0.559924	2.830000	0.634283	0.377976	53.631928
57.248482	0.003823	0.074123	0.074222	87.850858	7.811413	1.280110	108.326159	108.326159	108.326159	3.167390	0.608641	2.830000	0.607322	0.362290	53.676314
58.073119	0.003934	0.075186	0.075289	88.022366	8.167609	1.268845	107.389186	107.389186	107.389186	3.144881	0.661450	2.830000	0.581345	0.346491	53.639414
58.909635	0.004048	0.076265	0.076372	88.191664	8.560222	1.257359	106.445618	106.445618	106.445618	3.121555	0.718561	2.830000	0.556412	0.330599	53.507668
59.758201	0.004166	0.077358	0.077471	88.358713	8.994366	1.245655	105.495710	105.495710	105.495710	3.097411	0.780148	2.830000	0.532584	0.314641	53.264842
60.618990	0.004286	0.078468	0.078585	88.523476	9.476001	1.233737	104.539727	104.539727	104.539727	3.072450	0.846332	2.830000	0.509919	0.298649	52.891382
61.492178	0.004410	0.079593	0.079715	88.685920	10.012061	1.221607	103.577949	103.577949	103.577949	3.046674	0.917161	2.830000	0.488473	0.282659	52.363600
