Freq (hertz)	Ra (norm)	Xa (norm)	Za (norm)	SPL (dB)	Ze (ohms)	Xd (mm) 	WPhase (deg)	UPhase (deg)	CPhase (deg)	Delay (msec)	Efficiency (%)	Ein (volts)	Pin (watts)	Iin (amps)	ZePhase (deg)

10.000000	0.002667	0.062303	0.062360	-18.248438	0.010000	0.400377	177.180108	177.180108	177.180108	0.783854	0.000011	2.830000	800.858270	282.994378	0.360142
10.144045	0.002745	0.063198	0.063257	-17.751679	0.010000	0.400382	177.139460	177.139460	177.139460	0.783878	0.000012	2.830000	800.857346	282.994214	0.365334
10.290166	0.002824	0.064105	0.064168	-17.254923	0.010000	0.400386	177.098225	177.098225	177.098225	0.783902	0.000012	2.830000	800.856395	282.994045	0.370600
10.438391	0.002906	0.065026	0.065091	-16.758172	0.010000	0.400391	177.056394	177.056394	177.056394	0.783928	0.000013	2.830000	800.855416	282.993871	0.375943
10.588751	0.002990	0.065960	0.066028	-16.261423	0.010000	0.400396	177.013960	177.013960	177.013960	0.783954	0.000014	2.830000	800.854408	282.993692	0.381363
10.741277	0.003077	0.066907	0.066978	-15.764681	0.010000	0.400401	176.970913	176.970913	176.970913	0.783981	0.000015	2.830000	800.853371	282.993508	0.386862
10.896000	0.003166	0.067868	0.067941	-15.267941	0.010000	0.400406	176.927244	176.927244	176.927244	0.784008	0.000015	2.830000	800.852304	282.993318	0.392439
11.052951	0.003258	0.068842	0.068919	-14.771208	0.010000	0.400412	176.882945	176.882945	176.882945	0.784037	0.000016	2.830000	800.851205	282.993123	0.398098
11.212164	0.003353	0.069830	0.069910	-14.274476	0.010000	0.400417	176.838006	176.838006	176.838006	0.784066	0.000017	2.830000	800.850075	282.992921	0.403838
11.373670	0.003450	0.070832	0.070916	-13.777753	0.010000	0.400423	176.792418	176.792418	176.792418	0.784096	0.000018	2.830000	800.848911	282.992714	0.409661
11.537502	0.003550	0.071849	0.071936	-13.281033	0.010000	0.400429	176.746171	176.746171	176.746171	0.784127	0.000019	2.830000	800.847713	282.992501	0.415568
11.703695	0.003653	0.072880	0.072971	-12.784316	0.010000	0.400435	176.699256	176.699256	176.699256	0.784159	0.000021	2.830000	800.846480	282.992282	0.421560
11.872281	0.003758	0.073926	0.074021	-12.287608	0.010000	0.400441	176.651664	176.651664	176.651664	0.784191	0.000022	2.830000	800.845211	282.992056	0.427639
12.043295	0.003867	0.074986	0.075086	-11.790905	0.010000	0.400447	176.603384	176.603384	176.603384	0.784225	0.000023	2.830000	800.843905	282.991823	0.433806
12.216773	0.003979	0.076062	0.076166	-11.294205	0.010000	0.400453	176.554406	176.554406	176.554406	0.784260	0.000024	2.830000	800.842560	282.991584	0.440062
12.392750	0.004095	0.077153	0.077261	-10.797510	0.010000	0.400460	176.504721	176.504721	176.504721	0.784295	0.000026	2.830000	800.841176	282.991337	0.446409
12.571262	0.004213	0.078259	0.078373	-10.300825	0.010000	0.400467	176.454318	176.454318	176.454318	0.784332	0.000027	2.830000	800.839751	282.991083	0.452847
12.752345	0.004336	0.079382	0.079500	-9.804143	0.010000	0.400474	176.403186	176.403186	176.403186	0.784370	0.000029	2.830000	800.838285	282.990822	0.459378
12.936037	0.004461	0.080520	0.080643	-9.307470	0.010000	0.400481	176.351315	176.351315	176.351315	0.784409	0.000031	2.830000	800.836776	282.990553	0.466004
13.122374	0.004590	0.081674	0.081803	-8.810800	0.010000	0.400489	176.298694	176.298694	176.298694	0.784449	0.000033	2.830000	800.835222	282.990276	0.472725
13.311396	0.004723	0.082845	0.082979	-8.314139	0.010000	0.400497	176.245313	176.245313	176.245313	0.784490	0.000034	2.830000	800.833622	282.989990	0.479544
13.503140	0.004860	0.084032	0.084172	-7.817483	0.010000	0.400505	176.191160	176.191160	176.191160	0.784532	0.000037	2.830000	800.831976	282.989697	0.486462
13.697647	0.005001	0.085236	0.085383	-7.320836	0.010000	0.400513	176.136224	176.136224	176.136224	0.784576	0.000039	2.830000	800.830281	282.989394	0.493479
13.894955	0.005146	0.086457	0.086610	-6.824194	0.010000	0.400521	176.080493	176.080493	176.080493	0.784621	0.000041	2.830000	800.828536	282.989083	0.500598
14.095105	0.005295	0.087696	0.087856	-6.327560	0.010000	0.400530	176.023956	176.023956	176.023956	0.784667	0.000043	2.830000	800.826741	282.988762	0.507820
14.298139	0.005448	0.088952	0.089119	-5.830935	0.010000	0.400539	175.966601	175.966601	175.966601	0.784714	0.000046	2.830000	800.824892	282.988432	0.515147
14.504097	0.005606	0.090226	0.090400	-5.334317	0.010000	0.400548	175.908417	175.908417	175.908417	0.784763	0.000049	2.830000	800.822988	282.988091	0.522579
14.713021	0.005769	0.091518	0.091699	-4.837707	0.010000	0.400557	175.849391	175.849391	175.849391	0.784813	0.000051	2.830000	800.821029	282.987741	0.530119
14.924955	0.005936	0.092828	0.093017	-4.341105	0.010000	0.400567	175.789511	175.789511	175.789511	0.784865	0.000054	2.830000	800.819012	282.987381	0.537769
15.139942	0.006108	0.094157	0.094354	-3.844511	0.010000	0.400577	175.728764	175.728764	175.728764	0.784918	0.000058	2.830000	800.816936	282.987009	0.545529
15.358026	0.006284	0.095504	0.095711	-3.347927	0.010000	0.400587	175.667138	175.667138	175.667138	0.784973	0.000061	2.830000	800.814798	282.986627	0.553401
15.579251	0.006466	0.096870	0.097086	-2.851351	0.010000	0.400598	175.604619	175.604619	175.604619	0.785029	0.000065	2.830000	800.812597	282.986233	0.561388
15.803663	0.006654	0.098256	0.098481	-2.354785	0.010001	0.400608	175.541196	175.541196	175.541196	0.785087	0.000069	2.830000	800.810332	282.985827	0.569490
16.031307	0.006846	0.099661	0.099896	-1.858229	0.010001	0.400620	175.476854	175.476854	175.476854	0.785146	0.000073	2.830000	800.807999	282.985409	0.577710
16.262231	0.007044	0.101086	0.101332	-1.361682	0.010001	0.400631	175.411580	175.411580	175.411580	0.785208	0.000077	2.830000	800.805597	282.984979	0.586048
16.496481	0.007248	0.102532	0.102788	-0.865146	0.010001	0.400643	175.345361	175.345361	175.345361	0.785271	0.000081	2.830000	800.803125	282.984536	0.594508
16.734105	0.007458	0.103997	0.104264	-0.368620	0.010001	0.400655	175.278183	175.278183	175.278183	0.785335	0.000086	2.830000	800.800579	282.984079	0.603090
16.975152	0.007674	0.105483	0.105762	0.127896	0.010001	0.400668	175.210031	175.210031	175.210031	0.785402	0.000091	2.830000	800.797958	282.983609	0.611797
17.219671	0.007896	0.106990	0.107281	0.624400	0.010001	0.400680	175.140891	175.140891	175.140891	0.785471	0.000097	2.830000	800.795260	282.983124	0.620630
17.467712	0.008125	0.108518	0.108822	1.120893	0.010001	0.400694	175.070750	175.070750	175.070750	0.785541	0.000102	2.830000	800.792481	282.982625	0.629591
17.719326	0.008360	0.110068	0.110385	1.617374	0.010001	0.400707	174.999591	174.999591	174.999591	0.785614	0.000108	2.830000	800.789620	282.982111	0.638682
17.974565	0.008602	0.111639	0.111970	2.113843	0.010001	0.400721	174.927401	174.927401	174.927401	0.785689	0.000115	2.830000	800.786675	282.981582	0.647905
18.233480	0.008851	0.113232	0.113578	2.610300	0.010001	0.400736	174.854164	174.854164	174.854164	0.785766	0.000121	2.830000	800.783642	282.981036	0.657262
18.496125	0.009107	0.114848	0.115209	3.106743	0.010001	0.400751	174.779864	174.779864	174.779864	0.785845	0.000129	2.830000	800.780518	282.980474	0.666754
18.762553	0.009370	0.116486	0.116863	3.603174	0.010001	0.400766	174.704487	174.704487	174.704487	0.785926	0.000136	2.830000	800.777302	282.979896	0.676385
19.032818	0.009641	0.118147	0.118540	4.099591	0.010001	0.400781	174.628015	174.628015	174.628015	0.786010	0.000144	2.830000	800.773991	282.979299	0.686155
19.306977	0.009920	0.119832	0.120242	4.595993	0.010001	0.400798	174.550434	174.550434	174.550434	0.786096	0.000153	2.830000	800.770581	282.978684	0.696067
19.585085	0.010207	0.121539	0.121967	5.092382	0.010001	0.400814	174.471727	174.471727	174.471727	0.786185	0.000162	2.830000	800.767069	282.978051	0.706123
19.867199	0.010502	0.123271	0.123718	5.588756	0.010001	0.400831	174.391876	174.391876	174.391876	0.786276	0.000171	2.830000	800.763453	282.977399	0.716326
20.153377	0.010806	0.125027	0.125493	6.085114	0.010001	0.400849	174.310866	174.310866	174.310866	0.786370	0.000181	2.830000	800.759728	282.976727	0.726677
20.443677	0.011118	0.126807	0.127293	6.581457	0.010001	0.400867	174.228680	174.228680	174.228680	0.786466	0.000192	2.830000	800.755893	282.976034	0.737178
20.738158	0.011440	0.128612	0.129119	7.077784	0.010001	0.400886	174.145298	174.145298	174.145298	0.786565	0.000203	2.830000	800.751943	282.975320	0.747832
21.036882	0.011771	0.130442	0.130972	7.574093	0.010001	0.400905	174.060705	174.060705	174.060705	0.786667	0.000215	2.830000	800.747876	282.974584	0.758641
21.339908	0.012111	0.132297	0.132850	8.070386	0.010001	0.400924	173.974882	173.974882	173.974882	0.786772	0.000228	2.830000	800.743686	282.973826	0.769607
21.647300	0.012461	0.134178	0.134755	8.566661	0.010001	0.400945	173.887812	173.887812	173.887812	0.786880	0.000241	2.830000	800.739371	282.973045	0.780733
21.959119	0.012821	0.136085	0.136687	9.062918	0.010001	0.400965	173.799474	173.799474	173.799474	0.786991	0.000255	2.830000	800.734927	282.972239	0.792021
22.275430	0.013191	0.138018	0.138647	9.559157	0.010001	0.400987	173.709851	173.709851	173.709851	0.787106	0.000270	2.830000	800.730349	282.971409	0.803473
22.596297	0.013572	0.139978	0.140634	10.055376	0.010001	0.401009	173.618924	173.618924	173.618924	0.787223	0.000286	2.830000	800.725634	282.970554	0.815092
22.921786	0.013965	0.141965	0.142650	10.551575	0.010001	0.401031	173.526674	173.526674	173.526674	0.787344	0.000303	2.830000	800.720778	282.969672	0.826881
23.251963	0.014368	0.143979	0.144694	11.047753	0.010001	0.401055	173.433079	173.433079	173.433079	0.787469	0.000321	2.830000	800.715775	282.968762	0.838841
23.586897	0.014783	0.146021	0.146768	11.543911	0.010001	0.401079	173.338122	173.338122	173.338122	0.787597	0.000340	2.830000	800.710622	282.967825	0.850976
23.926655	0.015210	0.148091	0.148870	12.040047	0.010001	0.401103	173.241781	173.241781	173.241781	0.787728	0.000360	2.830000	800.705314	282.966859	0.863288
24.271307	0.015649	0.150190	0.151003	12.536161	0.010001	0.401129	173.144035	173.144035	173.144035	0.787864	0.000381	2.830000	800.699845	282.965863	0.875780
24.620924	0.016101	0.152317	0.153165	13.032251	0.010001	0.401155	173.044864	173.044864	173.044864	0.788003	0.000403	2.830000	800.694211	282.964835	0.888454
24.975577	0.016565	0.154473	0.155358	13.528318	0.010001	0.401182	172.944247	172.944247	172.944247	0.788146	0.000427	2.830000	800.688407	282.963776	0.901313
25.335338	0.017043	0.156658	0.157583	14.024361	0.010001	0.401209	172.842161	172.842161	172.842161	0.788293	0.000452	2.830000	800.682428	282.962684	0.914360
25.700282	0.017535	0.158874	0.159838	14.520379	0.010001	0.401238	172.738586	172.738586	172.738586	0.788445	0.000479	2.830000	800.676267	282.961558	0.927597
26.070482	0.018041	0.161119	0.162126	15.016370	0.010001	0.401267	172.633497	172.633497	172.633497	0.788601	0.000507	2.830000	800.669919	282.960396	0.941028
26.446016	0.018561	0.163395	0.164446	15.512335	0.010001	0.401297	172.526874	172.526874	172.526874	0.788761	0.000537	2.830000	800.663379	282.959198	0.954656
26.826958	0.019097	0.165702	0.166798	16.008273	0.010001	0.401328	172.418693	172.418693	172.418693	0.788926	0.000569	2.830000	800.656640	282.957963	0.968483
27.213388	0.019647	0.168039	0.169184	16.504182	0.010002	0.401359	172.308930	172.308930	172.308930	0.789095	0.000602	2.830000	800.649695	282.956688	0.982513
27.605384	0.020214	0.170409	0.171604	17.000062	0.010002	0.401392	172.197562	172.197562	172.197562	0.789270	0.000638	2.830000	800.642539	282.955374	0.996748
28.003026	0.020797	0.172810	0.174057	17.495913	0.010002	0.401425	172.084564	172.084564	172.084564	0.789449	0.000675	2.830000	800.635165	282.954017	1.011192
28.406397	0.021396	0.175244	0.176545	17.991732	0.010002	0.401460	171.969912	171.969912	171.969912	0.789633	0.000715	2.830000	800.627565	282.952618	1.025847
28.815578	0.022012	0.177710	0.179068	18.487520	0.010002	0.401495	171.853581	171.853581	171.853581	0.789823	0.000757	2.830000	800.619733	282.951175	1.040718
29.230652	0.022646	0.180209	0.181626	18.983274	0.010002	0.401532	171.735546	171.735546	171.735546	0.790018	0.000801	2.830000	800.611660	282.949685	1.055806
29.651706	0.023299	0.182742	0.184221	19.478995	0.010002	0.401569	171.615780	171.615780	171.615780	0.790219	0.000849	2.830000	800.603340	282.948148	1.071116
30.078825	0.023970	0.185308	0.186852	19.974682	0.010002	0.401608	171.494258	171.494258	171.494258	0.790425	0.000899	2.830000	800.594764	282.946562	1.086652
30.512097	0.024660	0.187908	0.189519	20.470332	0.010002	0.401648	171.370953	171.370953	171.370953	0.790637	0.000951	2.830000	800.585924	282.944925	1.102415
30.951609	0.025369	0.190543	0.192225	20.965945	0.010002	0.401689	171.245838	171.245838	171.245838	0.790855	0.001007	2.830000	800.576812	282.943236	1.118410
31.397452	0.026099	0.193213	0.194968	21.461521	0.010002	0.401730	171.118884	171.118884	171.118884	0.791079	0.001067	2.830000	800.567418	282.941492	1.134641
31.849718	0.026850	0.195918	0.197749	21.957057	0.010002	0.401774	170.990066	170.990066	170.990066	0.791310	0.001129	2.830000	800.557734	282.939692	1.151111
32.308498	0.027622	0.198658	0.200569	22.452553	0.010002	0.401818	170.859353	170.859353	170.859353	0.791547	0.001196	2.830000	800.547750	282.937833	1.167823
32.773887	0.028417	0.201434	0.203429	22.948007	0.010002	0.401863	170.726717	170.726717	170.726717	0.791791	0.001266	2.830000	800.537456	282.935915	1.184782
33.245979	0.029233	0.204247	0.206328	23.443418	0.010002	0.401910	170.592128	170.592128	170.592128	0.792041	0.001341	2.830000	800.526842	282.933934	1.201991
33.724872	0.030074	0.207096	0.209268	23.938785	0.010002	0.401959	170.455557	170.455557	170.455557	0.792299	0.001420	2.830000	800.515897	282.931888	1.219454
34.210663	0.030938	0.209982	0.212249	24.434107	0.010002	0.402008	170.316973	170.316973	170.316973	0.792564	0.001503	2.830000	800.504611	282.929775	1.237175
34.703452	0.031826	0.212906	0.215271	24.929382	0.010003	0.402059	170.176345	170.176345	170.176345	0.792836	0.001592	2.830000	800.492972	282.927593	1.255157
35.203338	0.032740	0.215867	0.218336	25.424608	0.010003	0.402111	170.033641	170.033641	170.033641	0.793116	0.001685	2.830000	800.480969	282.925340	1.273406
35.710426	0.033680	0.218867	0.221443	25.919784	0.010003	0.402165	169.888830	169.888830	169.888830	0.793404	0.001785	2.830000	800.468589	282.923011	1.291925
36.224818	0.034646	0.221904	0.224593	26.414909	0.010003	0.402220	169.741880	169.741880	169.741880	0.793700	0.001890	2.830000	800.455820	282.920606	1.310718
36.746619	0.035640	0.224981	0.227786	26.909981	0.010003	0.402277	169.592756	169.592756	169.592756	0.794005	0.002001	2.830000	800.442649	282.918121	1.329789
37.275937	0.036662	0.228097	0.231024	27.404998	0.010003	0.402336	169.441425	169.441425	169.441425	0.794317	0.002119	2.830000	800.429062	282.915554	1.349144
37.812880	0.037713	0.231252	0.234307	27.899959	0.010003	0.402396	169.287853	169.287853	169.287853	0.794639	0.002243	2.830000	800.415045	282.912900	1.368785
38.357556	0.038793	0.234447	0.237635	28.394862	0.010003	0.402458	169.132005	169.132005	169.132005	0.794969	0.002375	2.830000	800.400585	282.910158	1.388719
38.910079	0.039905	0.237682	0.241009	28.889706	0.010003	0.402521	168.973845	168.973845	168.973845	0.795309	0.002515	2.830000	800.385664	282.907323	1.408949
39.470560	0.041047	0.240957	0.244429	29.384487	0.010003	0.402586	168.813338	168.813338	168.813338	0.795658	0.002663	2.830000	800.370269	282.904393	1.429480
40.039115	0.042222	0.244274	0.247896	29.879205	0.010003	0.402653	168.650446	168.650446	168.650446	0.796017	0.002820	2.830000	800.354382	282.901364	1.450316
40.615860	0.043430	0.247631	0.251411	30.373857	0.010004	0.402722	168.485133	168.485133	168.485133	0.796386	0.002985	2.830000	800.337988	282.898232	1.471464
41.200912	0.044672	0.251030	0.254974	30.868442	0.010004	0.402793	168.317359	168.317359	168.317359	0.796765	0.003161	2.830000	800.321068	282.894993	1.492926
41.794392	0.045949	0.254470	0.258586	31.362956	0.010004	0.402865	168.147087	168.147087	168.147087	0.797154	0.003347	2.830000	800.303604	282.891643	1.514709
42.396421	0.047262	0.257953	0.262247	31.857399	0.010004	0.402940	167.974276	167.974276	167.974276	0.797554	0.003544	2.830000	800.285577	282.888179	1.536818
43.007121	0.048612	0.261477	0.265958	32.351768	0.010004	0.403017	167.798887	167.798887	167.798887	0.797966	0.003752	2.830000	800.266968	282.884595	1.559257
43.626619	0.050000	0.265044	0.269719	32.846060	0.010004	0.403096	167.620878	167.620878	167.620878	0.798388	0.003973	2.830000	800.247757	282.880887	1.582033
44.255040	0.051427	0.268654	0.273532	33.340273	0.010004	0.403177	167.440209	167.440209	167.440209	0.798822	0.004207	2.830000	800.227922	282.877051	1.605150
44.892513	0.052894	0.272307	0.277397	33.834405	0.010004	0.403260	167.256836	167.256836	167.256836	0.799268	0.004454	2.830000	800.207442	282.873081	1.628613
45.539168	0.054402	0.276003	0.281314	34.328453	0.010005	0.403345	167.070716	167.070716	167.070716	0.799727	0.004716	2.830000	800.186293	282.868972	1.652429
46.195138	0.055952	0.279743	0.285284	34.822414	0.010005	0.403433	166.881805	166.881805	166.881805	0.800197	0.004993	2.830000	800.164452	282.864720	1.676603
46.860558	0.057545	0.283526	0.289307	35.316285	0.010005	0.403523	166.690060	166.690060	166.690060	0.800681	0.005287	2.830000	800.141895	282.860317	1.701141
47.535562	0.059183	0.287354	0.293385	35.810064	0.010005	0.403616	166.495433	166.495433	166.495433	0.801178	0.005598	2.830000	800.118595	282.855759	1.726048
48.220290	0.060866	0.291225	0.297517	36.303748	0.010005	0.403711	166.297878	166.297878	166.297878	0.801688	0.005927	2.830000	800.094527	282.851039	1.751331
48.914880	0.062596	0.295140	0.301705	36.797334	0.010005	0.403809	166.097348	166.097348	166.097348	0.802212	0.006276	2.830000	800.069661	282.846151	1.776996
49.619476	0.064375	0.299100	0.305949	37.290818	0.010006	0.403909	165.893795	165.893795	165.893795	0.802751	0.006645	2.830000	800.043971	282.841088	1.803049
50.334221	0.066203	0.303105	0.310250	37.784198	0.010006	0.404012	165.687170	165.687170	165.687170	0.803303	0.007035	2.830000	800.017425	282.835843	1.829495
51.059262	0.068081	0.307153	0.314608	38.277469	0.010006	0.404118	165.477422	165.477422	165.477422	0.803871	0.007449	2.830000	799.989992	282.830409	1.856343
51.794747	0.070012	0.311247	0.319024	38.770629	0.010006	0.404226	165.264501	165.264501	165.264501	0.804454	0.007887	2.830000	799.961641	282.824778	1.883598
52.540826	0.071996	0.315386	0.323499	39.263674	0.010006	0.404338	165.048353	165.048353	165.048353	0.805052	0.008351	2.830000	799.932337	282.818942	1.911267
53.297652	0.074035	0.319569	0.328033	39.756599	0.010007	0.404452	164.828928	164.828928	164.828928	0.805667	0.008841	2.830000	799.902045	282.812893	1.939356
54.065379	0.076130	0.323797	0.332626	40.249402	0.010007	0.404569	164.606169	164.606169	164.606169	0.806298	0.009361	2.830000	799.870728	282.806622	1.967873
54.844166	0.078282	0.328070	0.337280	40.742078	0.010007	0.404690	164.380022	164.380022	164.380022	0.806945	0.009911	2.830000	799.838349	282.800120	1.996825
55.634170	0.080494	0.332387	0.341995	41.234623	0.010007	0.404813	164.150431	164.150431	164.150431	0.807610	0.010494	2.830000	799.804868	282.793377	2.026218
56.435554	0.082767	0.336750	0.346772	41.727033	0.010008	0.404940	163.917339	163.917339	163.917339	0.808292	0.011110	2.830000	799.770243	282.786384	2.056061
57.248482	0.085102	0.341157	0.351611	42.219303	0.010008	0.405071	163.680687	163.680687	163.680687	0.808992	0.011763	2.830000	799.734431	282.779129	2.086361
58.073119	0.087500	0.345608	0.356513	42.711429	0.010008	0.405204	163.440416	163.440416	163.440416	0.809710	0.012454	2.830000	799.697388	282.771603	2.117124
58.909635	0.089965	0.350104	0.361478	43.203405	0.010008	0.405341	163.196464	163.196464	163.196464	0.810447	0.013185	2.830000	799.659066	282.763793	2.148360
59.758201	0.092496	0.354644	0.366508	43.695228	0.010009	0.405482	162.948771	162.948771	162.948771	0.811203	0.013960	2.830000	799.619418	282.755688	2.180076
