Freq (hertz)	Ra (norm)	Xa (norm)	Za (norm)	SPL (dB)	Ze (ohms)	Xd (mm) 	WPhase (deg)	UPhase (deg)	CPhase (deg)	Delay (msec)	Efficiency (%)	Ein (volts)	Pin (watts)	Iin (amps)	ZePhase (deg)

10.000000	0.000454	0.025571	0.025575	71.006242	27.083182	1.551518	100.158165	100.158165	100.158165	3.383753	0.075026	2.830000	0.101884	0.104493	69.846617
10.144045	0.000467	0.025939	0.025943	71.135356	27.524572	1.530351	99.984879	99.984879	99.984879	3.300665	0.078557	2.830000	0.100241	0.102817	69.848545
10.290166	0.000481	0.026312	0.026317	71.264346	27.975613	1.509452	99.813409	99.813409	99.813409	3.219749	0.082237	2.830000	0.098642	0.101160	69.844856
10.438391	0.000495	0.026691	0.026696	71.393216	28.436598	1.488818	99.643730	99.643730	99.643730	3.140952	0.086071	2.830000	0.097086	0.099520	69.835452
10.588751	0.000509	0.027075	0.027080	71.521971	28.907832	1.468446	99.475815	99.475815	99.475815	3.064225	0.090065	2.830000	0.095573	0.097897	69.820231
10.741277	0.000524	0.027465	0.027470	71.650613	29.389633	1.448334	99.309637	99.309637	99.309637	2.989515	0.094224	2.830000	0.094100	0.096292	69.799083
10.896000	0.000539	0.027861	0.027866	71.779145	29.882334	1.428480	99.145172	99.145172	99.145172	2.916775	0.098555	2.830000	0.092668	0.094705	69.771894
11.052951	0.000555	0.028262	0.028267	71.907571	30.386282	1.408880	98.982392	98.982392	98.982392	2.845957	0.103062	2.830000	0.091275	0.093134	69.738539
11.212164	0.000571	0.028669	0.028674	72.035894	30.901840	1.389534	98.821271	98.821271	98.821271	2.777012	0.107752	2.830000	0.089921	0.091580	69.698890
11.373670	0.000587	0.029081	0.029087	72.164116	31.429386	1.370437	98.661785	98.661785	98.661785	2.709896	0.112630	2.830000	0.088604	0.090043	69.652810
11.537502	0.000604	0.029500	0.029506	72.292242	31.969317	1.351588	98.503906	98.503906	98.503906	2.644562	0.117704	2.830000	0.087323	0.088522	69.600154
11.703695	0.000622	0.029925	0.029931	72.420273	32.522047	1.332983	98.347609	98.347609	98.347609	2.580966	0.122978	2.830000	0.086078	0.087018	69.540767
11.872281	0.000640	0.030355	0.030362	72.548213	33.088010	1.314621	98.192868	98.192868	98.192868	2.519066	0.128461	2.830000	0.084868	0.085529	69.474487
12.043295	0.000658	0.030792	0.030799	72.676065	33.667660	1.296499	98.039657	98.039657	98.039657	2.458819	0.134158	2.830000	0.083692	0.084057	69.401142
12.216773	0.000677	0.031235	0.031243	72.803831	34.261471	1.278614	97.887950	97.887950	97.887950	2.400183	0.140076	2.830000	0.082549	0.082600	69.320548
12.392750	0.000697	0.031685	0.031693	72.931513	34.869943	1.260964	97.737723	97.737723	97.737723	2.343118	0.146222	2.830000	0.081439	0.081159	69.232513
12.571262	0.000717	0.032141	0.032149	73.059115	35.493597	1.243546	97.588949	97.588949	97.588949	2.287584	0.152604	2.830000	0.080360	0.079733	69.136831
12.752345	0.000738	0.032604	0.032612	73.186640	36.132980	1.226358	97.441602	97.441602	97.441602	2.233542	0.159227	2.830000	0.079312	0.078322	69.033284
12.936037	0.000759	0.033073	0.033082	73.314089	36.788666	1.209397	97.295659	97.295659	97.295659	2.180955	0.166101	2.830000	0.078295	0.076926	68.921642
13.122374	0.000782	0.033549	0.033558	73.441465	37.461257	1.192661	97.151092	97.151092	97.151092	2.129785	0.173231	2.830000	0.077306	0.075545	68.801660
13.311396	0.000804	0.034032	0.034041	73.568770	38.151385	1.176147	97.007877	97.007877	97.007877	2.079997	0.180625	2.830000	0.076347	0.074178	68.673079
13.503140	0.000828	0.034522	0.034532	73.696008	38.859713	1.159852	96.865989	96.865989	96.865989	2.031554	0.188292	2.830000	0.075416	0.072826	68.535623
13.697647	0.000852	0.035018	0.035029	73.823179	39.586937	1.143775	96.725403	96.725403	96.725403	1.984422	0.196239	2.830000	0.074512	0.071488	68.388999
13.894955	0.000876	0.035522	0.035533	73.950288	40.333790	1.127913	96.586093	96.586093	96.586093	1.938567	0.204474	2.830000	0.073635	0.070164	68.232898
14.095105	0.000902	0.036034	0.036045	74.077335	41.101041	1.112263	96.448035	96.448035	96.448035	1.893957	0.213006	2.830000	0.072784	0.068855	68.066988
14.298139	0.000928	0.036552	0.036564	74.204322	41.889497	1.096822	96.311204	96.311204	96.311204	1.850560	0.221841	2.830000	0.071959	0.067559	67.890918
14.504097	0.000955	0.037078	0.037090	74.331253	42.700009	1.081589	96.175576	96.175576	96.175576	1.808343	0.230990	2.830000	0.071158	0.066276	67.704317
14.713021	0.000982	0.037612	0.037624	74.458129	43.533471	1.066561	96.041125	96.041125	96.041125	1.767276	0.240460	2.830000	0.070383	0.065007	67.506786
14.924955	0.001011	0.038153	0.038166	74.584953	44.390823	1.051736	95.907828	95.907828	95.907828	1.727329	0.250259	2.830000	0.069630	0.063752	67.297905
15.139942	0.001040	0.038702	0.038716	74.711725	45.273055	1.037111	95.775660	95.775660	95.775660	1.688473	0.260398	2.830000	0.068902	0.062510	67.077221
15.358026	0.001070	0.039259	0.039273	74.838449	46.181206	1.022683	95.644596	95.644596	95.644596	1.650680	0.270884	2.830000	0.068196	0.061280	66.844258
15.579251	0.001101	0.039824	0.039839	74.965127	47.116373	1.008451	95.514612	95.514612	95.514612	1.613921	0.281726	2.830000	0.067512	0.060064	66.598505
15.803663	0.001133	0.040396	0.040412	75.091759	48.079707	0.994412	95.385685	95.385685	95.385685	1.578169	0.292935	2.830000	0.066850	0.058861	66.339417
16.031307	0.001166	0.040978	0.040994	75.218348	49.072422	0.980564	95.257789	95.257789	95.257789	1.543399	0.304518	2.830000	0.066209	0.057670	66.066414
16.262231	0.001200	0.041567	0.041584	75.344896	50.095794	0.966904	95.130902	95.130902	95.130902	1.509583	0.316486	2.830000	0.065589	0.056492	65.778876
16.496481	0.001235	0.042165	0.042183	75.471405	51.151166	0.953431	95.004999	95.004999	95.004999	1.476697	0.328847	2.830000	0.064989	0.055326	65.476143
16.734105	0.001271	0.042772	0.042791	75.597877	52.239949	0.940141	94.880056	94.880056	94.880056	1.444717	0.341612	2.830000	0.064409	0.054173	65.157509
16.975152	0.001308	0.043387	0.043407	75.724313	53.363628	0.927033	94.756050	94.756050	94.756050	1.413618	0.354790	2.830000	0.063849	0.053032	64.822217
17.219671	0.001346	0.044011	0.044032	75.850715	54.523763	0.914104	94.632957	94.632957	94.632957	1.383377	0.368391	2.830000	0.063308	0.051904	64.469461
17.467712	0.001385	0.044644	0.044666	75.977085	55.721992	0.901352	94.510754	94.510754	94.510754	1.353971	0.382426	2.830000	0.062785	0.050788	64.098379
17.719326	0.001425	0.045286	0.045309	76.103424	56.960035	0.888775	94.389417	94.389417	94.389417	1.325378	0.396903	2.830000	0.062281	0.049684	63.708045
17.974565	0.001466	0.045937	0.045961	76.229734	58.239693	0.876371	94.268923	94.268923	94.268923	1.297576	0.411833	2.830000	0.061794	0.048592	63.297472
18.233480	0.001509	0.046598	0.046623	76.356018	59.562854	0.864138	94.149247	94.149247	94.149247	1.270545	0.427227	2.830000	0.061325	0.047513	62.865599
18.496125	0.001552	0.047268	0.047294	76.482275	60.931491	0.852073	94.030369	94.030369	94.030369	1.244264	0.443094	2.830000	0.060873	0.046446	62.411292
18.762553	0.001597	0.047948	0.047975	76.608509	62.347661	0.840174	93.912263	93.912263	93.912263	1.218712	0.459446	2.830000	0.060438	0.045391	61.933335
19.032818	0.001644	0.048637	0.048665	76.734721	63.813509	0.828440	93.794907	93.794907	93.794907	1.193871	0.476292	2.830000	0.060020	0.044348	61.430423
19.306977	0.001691	0.049337	0.049366	76.860912	65.331260	0.816867	93.678277	93.678277	93.678277	1.169721	0.493644	2.830000	0.059617	0.043318	60.901159
19.585085	0.001740	0.050046	0.050076	76.987084	66.903218	0.805455	93.562352	93.562352	93.562352	1.146244	0.511511	2.830000	0.059231	0.042300	60.344044
19.867199	0.001791	0.050766	0.050797	77.113238	68.531758	0.794201	93.447107	93.447107	93.447107	1.123422	0.529906	2.830000	0.058860	0.041295	59.757470
20.153377	0.001843	0.051495	0.051528	77.239376	70.219317	0.783102	93.332521	93.332521	93.332521	1.101237	0.548837	2.830000	0.058504	0.040302	59.139713
20.443677	0.001896	0.052236	0.052270	77.365500	71.968380	0.772158	93.218569	93.218569	93.218569	1.079673	0.568318	2.830000	0.058164	0.039323	58.488924
20.738158	0.001951	0.052987	0.053023	77.491611	73.781463	0.761366	93.105231	93.105231	93.105231	1.058712	0.588357	2.830000	0.057838	0.038357	57.803124
21.036882	0.002008	0.053748	0.053786	77.617710	75.661087	0.750724	92.992481	92.992481	92.992481	1.038338	0.608967	2.830000	0.057527	0.037404	57.080189
21.339908	0.002066	0.054521	0.054560	77.743800	77.609753	0.740230	92.880299	92.880299	92.880299	1.018536	0.630158	2.830000	0.057230	0.036464	56.317850
21.647300	0.002126	0.055304	0.055345	77.869881	79.629896	0.729882	92.768661	92.768661	92.768661	0.999291	0.651941	2.830000	0.056947	0.035539	55.513677
21.959119	0.002187	0.056099	0.056142	77.995955	81.723843	0.719678	92.657544	92.657544	92.657544	0.980586	0.674328	2.830000	0.056679	0.034629	54.665078
22.275430	0.002251	0.056905	0.056950	78.122023	83.893749	0.709617	92.546927	92.546927	92.546927	0.962409	0.697329	2.830000	0.056423	0.033733	53.769288
22.596297	0.002316	0.057723	0.057769	78.248088	86.141523	0.699696	92.436786	92.436786	92.436786	0.944744	0.720956	2.830000	0.056182	0.032853	52.823366
22.921786	0.002383	0.058552	0.058601	78.374150	88.468737	0.689914	92.327099	92.327099	92.327099	0.927578	0.745219	2.830000	0.055953	0.031989	51.824192
23.251963	0.002452	0.059394	0.059444	78.500212	90.876510	0.680269	92.217843	92.217843	92.217843	0.910898	0.770130	2.830000	0.055738	0.031141	50.768466
23.586897	0.002524	0.060247	0.060300	78.626274	93.365382	0.670760	92.108996	92.108996	92.108996	0.894690	0.795700	2.830000	0.055536	0.030311	49.652712
23.926655	0.002597	0.061112	0.061167	78.752337	95.935145	0.661383	92.000535	92.000535	92.000535	0.878941	0.821939	2.830000	0.055346	0.029499	48.473286
24.271307	0.002672	0.061990	0.062048	78.878405	98.584657	0.652138	91.892438	91.892438	91.892438	0.863641	0.848859	2.830000	0.055170	0.028706	47.226396
24.620924	0.002749	0.062880	0.062940	79.004477	101.311621	0.643023	91.784682	91.784682	91.784682	0.848776	0.876470	2.830000	0.055005	0.027934	45.908119
24.975577	0.002829	0.063783	0.063846	79.130556	104.112330	0.634036	91.677244	91.677244	91.677244	0.834334	0.904784	2.830000	0.054854	0.027182	44.514441
25.335338	0.002911	0.064699	0.064765	79.256642	106.981378	0.625175	91.570102	91.570102	91.570102	0.820305	0.933810	2.830000	0.054714	0.026453	43.041302
25.700282	0.002996	0.065628	0.065697	79.382738	109.911339	0.616439	91.463233	91.463233	91.463233	0.806678	0.963560	2.830000	0.054587	0.025748	41.484659
26.070482	0.003082	0.066571	0.066642	79.508846	112.892423	0.607826	91.356615	91.356615	91.356615	0.793441	0.994044	2.830000	0.054472	0.025068	39.840566
26.446016	0.003172	0.067526	0.067601	79.634965	115.912114	0.599335	91.250224	91.250224	91.250224	0.780584	1.025273	2.830000	0.054369	0.024415	38.105281
26.826958	0.003264	0.068496	0.068573	79.761099	118.954809	0.590963	91.144039	91.144039	91.144039	0.768097	1.057256	2.830000	0.054278	0.023791	36.275381
27.213388	0.003358	0.069479	0.069560	79.887249	122.001487	0.582710	91.038036	91.038036	91.038036	0.755971	1.090003	2.830000	0.054199	0.023196	34.347922
27.605384	0.003456	0.070476	0.070561	80.013415	125.029433	0.574573	90.932192	90.932192	90.932192	0.744195	1.123525	2.830000	0.054132	0.022635	32.320604
28.003026	0.003556	0.071487	0.071576	80.139601	128.012067	0.566552	90.826485	90.826485	90.826485	0.732761	1.157831	2.830000	0.054077	0.022107	30.191973
28.406397	0.003659	0.072513	0.072605	80.265806	130.918927	0.558644	90.720891	90.720891	90.720891	0.721659	1.192930	2.830000	0.054033	0.021616	27.961633
28.815578	0.003765	0.073553	0.073650	80.392034	133.715862	0.550848	90.615387	90.615387	90.615387	0.710880	1.228832	2.830000	0.054001	0.021164	25.630470
29.230652	0.003874	0.074609	0.074709	80.518285	136.365491	0.543163	90.509951	90.509951	90.509951	0.700416	1.265546	2.830000	0.053982	0.020753	23.200871
29.651706	0.003986	0.075679	0.075784	80.644562	138.827976	0.535586	90.404558	90.404558	90.404558	0.690259	1.303079	2.830000	0.053973	0.020385	20.676930
30.078825	0.004102	0.076764	0.076874	80.770865	141.062137	0.528118	90.299186	90.299186	90.299186	0.680400	1.341441	2.830000	0.053977	0.020062	18.064605
30.512097	0.004220	0.077865	0.077979	80.897197	143.026894	0.520755	90.193811	90.193811	90.193811	0.670832	1.380639	2.830000	0.053993	0.019786	15.371820
30.951609	0.004343	0.078981	0.079101	81.023560	144.682996	0.513497	90.088409	90.088409	90.088409	0.661548	1.420681	2.830000	0.054020	0.019560	12.608481
31.397452	0.004469	0.080114	0.080238	81.149954	145.994918	0.506343	89.982958	89.982958	89.982958	0.652538	1.461574	2.830000	0.054059	0.019384	9.786388
31.849718	0.004598	0.081262	0.081392	81.276383	146.932798	0.499290	89.877431	89.877431	89.877431	0.643798	1.503325	2.830000	0.054110	0.019261	6.919036
32.308498	0.004731	0.082427	0.082562	81.402847	147.474200	0.492338	89.771807	89.771807	89.771807	0.635319	1.545940	2.830000	0.054173	0.019190	4.021299
32.773887	0.004868	0.083608	0.083749	81.529348	147.605537	0.485486	89.666060	89.666060	89.666060	0.627095	1.589426	2.830000	0.054249	0.019173	1.109022
33.245979	0.005009	0.084806	0.084954	81.655888	147.322971	0.478731	89.560167	89.560167	89.560167	0.619119	1.633787	2.830000	0.054336	0.019209	-1.801472
33.724872	0.005154	0.086021	0.086175	81.782470	146.632672	0.472072	89.454102	89.454102	89.454102	0.611385	1.679029	2.830000	0.054436	0.019300	-4.693906
34.210663	0.005304	0.087253	0.087414	81.909095	145.550421	0.465509	89.347841	89.347841	89.347841	0.603887	1.725157	2.830000	0.054548	0.019443	-7.552572
34.703452	0.005457	0.088502	0.088670	82.035765	144.100582	0.459040	89.241359	89.241359	89.241359	0.596618	1.772173	2.830000	0.054672	0.019639	-10.362806
35.203338	0.005615	0.089770	0.089945	82.162482	142.314593	0.452664	89.134632	89.134632	89.134632	0.589574	1.820082	2.830000	0.054809	0.019886	-13.111387
35.710426	0.005778	0.091055	0.091238	82.289248	140.229144	0.446379	89.027632	89.027632	89.027632	0.582747	1.868886	2.830000	0.054959	0.020181	-15.786833
36.224818	0.005945	0.092358	0.092549	82.416065	137.884230	0.440184	88.920336	88.920336	88.920336	0.576134	1.918588	2.830000	0.055121	0.020524	-18.379576
36.746619	0.006118	0.093680	0.093879	82.542936	135.321269	0.434078	88.812717	88.812717	88.812717	0.569728	1.969188	2.830000	0.055297	0.020913	-20.882037
37.275937	0.006295	0.095020	0.095228	82.669862	132.581429	0.428060	88.704748	88.704748	88.704748	0.563525	2.020688	2.830000	0.055486	0.021345	-23.288587
37.812880	0.006477	0.096379	0.096597	82.796845	129.704237	0.422128	88.596405	88.596405	88.596405	0.557519	2.073088	2.830000	0.055688	0.021819	-25.595440
38.357556	0.006664	0.097758	0.097985	82.923888	126.726546	0.416282	88.487659	88.487659	88.487659	0.551706	2.126387	2.830000	0.055904	0.022332	-27.800479
38.910079	0.006857	0.099156	0.099393	83.050994	123.681822	0.410521	88.378484	88.378484	88.378484	0.546081	2.180583	2.830000	0.056133	0.022881	-29.903054
39.470560	0.007056	0.100573	0.100821	83.178163	120.599749	0.404842	88.268854	88.268854	88.268854	0.540639	2.235675	2.830000	0.056377	0.023466	-31.903757
40.039115	0.007260	0.102011	0.102269	83.305400	117.506088	0.399245	88.158739	88.158739	88.158739	0.535377	2.291660	2.830000	0.056635	0.024084	-33.804197
40.615860	0.007470	0.103469	0.103738	83.432706	114.422734	0.393730	88.048112	88.048112	88.048112	0.530290	2.348534	2.830000	0.056907	0.024733	-35.606794
41.200912	0.007686	0.104947	0.105228	83.560084	111.367917	0.388294	87.936945	87.936945	87.936945	0.525374	2.406293	2.830000	0.057194	0.025411	-37.314582
41.794392	0.007909	0.106446	0.106739	83.687536	108.356493	0.382936	87.825209	87.825209	87.825209	0.520624	2.464930	2.830000	0.057497	0.026117	-38.931039
42.396421	0.008138	0.107966	0.108272	83.815065	105.400297	0.377657	87.712876	87.712876	87.712876	0.516039	2.524441	2.830000	0.057814	0.026850	-40.459947
43.007121	0.008373	0.109507	0.109827	83.942674	102.508499	0.372454	87.599914	87.599914	87.599914	0.511612	2.584817	2.830000	0.058148	0.027607	-41.905265
43.626619	0.008616	0.111070	0.111404	84.070365	99.687975	0.367327	87.486295	87.486295	87.486295	0.507342	2.646051	2.830000	0.058497	0.028389	-43.271035
44.255040	0.008865	0.112655	0.113003	84.198141	96.943644	0.362274	87.371988	87.371988	87.371988	0.503225	2.708133	2.830000	0.058862	0.029192	-44.561305
44.892513	0.009121	0.114262	0.114626	84.326006	94.278790	0.357295	87.256963	87.256963	87.256963	0.499256	2.771055	2.830000	0.059245	0.030017	-45.780065
45.539168	0.009385	0.115892	0.116271	84.453961	91.695343	0.352388	87.141187	87.141187	87.141187	0.495435	2.834804	2.830000	0.059644	0.030863	-46.931207
46.195138	0.009656	0.117544	0.117940	84.582011	89.194127	0.347553	87.024629	87.024629	87.024629	0.491756	2.899370	2.830000	0.060061	0.031729	-48.018489
46.860558	0.009936	0.119219	0.119632	84.710158	86.775080	0.342789	86.907256	86.907256	86.907256	0.488218	2.964740	2.830000	0.060496	0.032613	-49.045514
47.535562	0.010223	0.120918	0.121349	84.838405	84.437431	0.338094	86.789035	86.789035	86.789035	0.484817	3.030899	2.830000	0.060949	0.033516	-50.015714
48.220290	0.010519	0.122640	0.123090	84.966755	82.179862	0.333468	86.669933	86.669933	86.669933	0.481551	3.097834	2.830000	0.061420	0.034437	-50.932346
48.914880	0.010823	0.124386	0.124856	85.095213	80.000637	0.328910	86.549916	86.549916	86.549916	0.478418	3.165529	2.830000	0.061911	0.035375	-51.798484
49.619476	0.011136	0.126157	0.126647	85.223781	77.897705	0.324419	86.428947	86.428947	86.428947	0.475414	3.233967	2.830000	0.062422	0.036330	-52.617025
50.334221	0.011458	0.127952	0.128464	85.352463	75.868791	0.319993	86.306993	86.306993	86.306993	0.472538	3.303131	2.830000	0.062953	0.037301	-53.390687
51.059262	0.011789	0.129772	0.130306	85.481262	73.911469	0.315633	86.184016	86.184016	86.184016	0.469787	3.373002	2.830000	0.063504	0.038289	-54.122017
51.794747	0.012129	0.131617	0.132175	85.610182	72.023217	0.311337	86.059980	86.059980	86.059980	0.467160	3.443562	2.830000	0.064077	0.039293	-54.813400
52.540826	0.012480	0.133488	0.134070	85.739227	70.201467	0.307105	85.934847	85.934847	85.934847	0.464653	3.514790	2.830000	0.064672	0.040313	-55.467063
53.297652	0.012840	0.135384	0.135992	85.868401	68.443636	0.302935	85.808578	85.808578	85.808578	0.462265	3.586664	2.830000	0.065290	0.041348	-56.085082
54.065379	0.013211	0.137307	0.137941	85.997708	66.747159	0.298827	85.681133	85.681133	85.681133	0.459995	3.659163	2.830000	0.065930	0.042399	-56.669397
54.844166	0.013593	0.139256	0.139918	86.127151	65.109508	0.294779	85.552473	85.552473	85.552473	0.457841	3.732264	2.830000	0.066594	0.043465	-57.221813
55.634170	0.013986	0.141232	0.141923	86.256736	63.528213	0.290792	85.422556	85.422556	85.422556	0.455801	3.805942	2.830000	0.067283	0.044547	-57.744011
56.435554	0.014389	0.143235	0.143956	86.386466	62.000869	0.286864	85.291340	85.291340	85.291340	0.453873	3.880174	2.830000	0.067997	0.045645	-58.237558
57.248482	0.014805	0.145266	0.146019	86.516346	60.525147	0.282995	85.158781	85.158781	85.158781	0.452056	3.954933	2.830000	0.068737	0.046757	-58.703912
58.073119	0.015232	0.147325	0.148110	86.646380	59.098802	0.279183	85.024837	85.024837	85.024837	0.450349	4.030195	2.830000	0.069503	0.047886	-59.144429
58.909635	0.015672	0.149411	0.150231	86.776573	57.719673	0.275428	84.889460	84.889460	84.889460	0.448750	4.105930	2.830000	0.070298	0.049030	-59.560372
59.758201	0.016124	0.151527	0.152382	86.906929	56.385687	0.271730	84.752605	84.752605	84.752605	0.447259	4.182113	2.830000	0.071120	0.050190	-59.952916
60.618990	0.016589	0.153671	0.154563	87.037455	55.094861	0.268086	84.614225	84.614225	84.614225	0.445874	4.258714	2.830000	0.071972	0.051366	-60.323155
61.492178	0.017068	0.155844	0.156776	87.168153	53.845297	0.264498	84.474270	84.474270	84.474270	0.444595	4.335704	2.830000	0.072853	0.052558	-60.672106
62.377944	0.017560	0.158047	0.159019	87.299031	52.635185	0.260964	84.332690	84.332690	84.332690	0.443420	4.413055	2.830000	0.073766	0.053766	-61.000717
